File: 002_Mazur_ACSApplMaterInterfaces_2024/isotherms/interpolated/isotherm_TIP4P_MOF-303_298_N7.csv
,pressure_Pa,fugacity_Pa,p/p0,uptake
0,1.0,0.979242,0.000219787,0.245116
1,23.8585,23.3633,0.00524381,3.43554
2,46.7171,45.7473,0.0102678,4.76241
3,69.5756,68.1314,0.0152919,5.48943
4,92.4342,90.5155,0.0203159,5.9484
5,115.293,112.9,0.0253399,6.26518
6,138.151,135.284,0.0303639,6.50348
7,161.01,157.668,0.0353879,6.71501
8,183.868,180.052,0.040412,6.96897
9,206.727,202.436,0.045436,7.37123
10,229.585,224.82,0.05046,7.98603
11,252.444,247.204,0.055484,8.69974
12,275.303,269.588,0.060508,9.39421
13,298.161,291.972,0.0655321,10.047
14,321.02,314.356,0.0705561,10.6603
15,343.878,336.74,0.0755801,11.2376
16,366.737,359.124,0.0806041,11.7822
17,389.595,381.508,0.0856281,12.3011
18,412.454,403.892,0.0906522,12.8206
19,435.312,426.276,0.0956762,13.4454
20,458.171,448.66,0.1007,14.5471
21,481.03,471.044,0.105724,16.7838
22,503.888,493.428,0.110748,19.5325
23,526.747,515.812,0.115772,22.1432
24,549.605,538.197,0.120796,24.3875
25,572.464,560.581,0.12582,26.0223
26,595.322,582.965,0.130844,27.159
27,618.181,605.349,0.135868,27.9593
28,641.039,627.733,0.140892,28.5604
29,663.898,650.117,0.145916,29.0468
30,686.756,672.501,0.15094,29.4605
31,709.615,694.885,0.155964,29.8216
32,732.474,717.269,0.160988,30.1412
33,755.332,739.653,0.166012,30.4265
34,778.191,762.037,0.171037,30.6826
35,801.049,784.421,0.176061,30.914
36,823.908,806.805,0.181085,31.1241
37,846.766,829.189,0.186109,31.3156
38,869.625,851.573,0.191133,31.4909
39,892.483,873.957,0.196157,31.652
40,915.342,896.341,0.201181,31.8005
41,938.201,918.725,0.206205,31.9379
42,961.059,941.109,0.211229,32.0654
43,983.918,963.494,0.216253,32.1839
44,1006.78,985.878,0.221277,32.2945
45,1029.63,1008.26,0.226301,32.3979
46,1052.49,1030.65,0.231325,32.4947
47,1075.35,1053.03,0.236349,32.5856
48,1098.21,1075.41,0.241373,32.6711
49,1121.07,1097.8,0.246397,32.7517
50,1143.93,1120.18,0.251421,32.8277
51,1166.79,1142.57,0.256445,32.8997
52,1189.64,1164.95,0.261469,32.9677
53,1212.5,1187.33,0.266493,33.0323
54,1235.36,1209.72,0.271517,33.0936
55,1258.22,1232.1,0.276541,33.1519
56,1281.08,1254.49,0.281565,33.2074
57,1303.94,1276.87,0.286589,33.2603
58,1326.8,1299.25,0.291613,33.3108
59,1349.65,1321.64,0.296637,33.359
60,1372.51,1344.02,0.301661,33.4052
61,1395.37,1366.41,0.306685,33.4493
62,1418.23,1388.79,0.311709,33.4917
63,1441.09,1411.17,0.316733,33.5323
64,1463.95,1433.56,0.321757,33.5713
65,1486.81,1455.94,0.326781,33.6088
66,1509.66,1478.33,0.331805,33.6448
67,1532.52,1500.71,0.336829,33.6796
68,1555.38,1523.09,0.341853,33.7131
69,1578.24,1545.48,0.346877,33.7455
70,1601.1,1567.86,0.351901,33.7768
71,1623.96,1590.25,0.356925,33.807
72,1646.82,1612.63,0.361949,33.8364
73,1669.67,1635.02,0.366973,33.8648
74,1692.53,1657.4,0.371997,33.8925
75,1715.39,1679.78,0.377021,33.9194
76,1738.25,1702.17,0.382045,33.9456
77,1761.11,1724.55,0.387069,33.9712
78,1783.97,1746.94,0.392093,33.9962
79,1806.83,1769.32,0.397117,34.0207
80,1829.68,1791.7,0.402141,34.0447
81,1852.54,1814.09,0.407166,34.0683
82,1875.4,1836.47,0.41219,34.0916
83,1898.26,1858.86,0.417214,34.1146
84,1921.12,1881.24,0.422238,34.1373
85,1943.98,1903.62,0.427262,34.1598
86,1966.84,1926.01,0.432286,34.1822
87,1989.69,1948.39,0.43731,34.2045
88,2012.55,1970.78,0.442334,34.2267
89,2035.41,1993.16,0.447358,34.249
90,2058.27,2015.54,0.452382,34.2713
91,2081.13,2037.93,0.457406,34.2937
92,2103.99,2060.31,0.46243,34.3162
93,2126.85,2082.7,0.467454,34.339
94,2149.7,2105.08,0.472478,34.362
95,2172.56,2127.46,0.477502,34.3853
96,2195.42,2149.85,0.482526,34.409
97,2218.28,2172.23,0.48755,34.433
98,2241.14,2194.62,0.492574,34.4575
99,2264,2217,0.497598,34.4824
100,2286.85,2239.38,0.502622,34.5078
101,2309.71,2261.77,0.507646,34.5338
102,2332.57,2284.15,0.51267,34.5604
103,2355.43,2306.54,0.517694,34.5875
104,2378.29,2328.92,0.522718,34.6153
105,2401.15,2351.3,0.527742,34.6437
106,2424.01,2373.69,0.532766,34.6728
107,2446.86,2396.07,0.53779,34.7026
108,2469.72,2418.46,0.542814,34.733
109,2492.58,2440.84,0.547838,34.7641
110,2515.44,2463.23,0.552862,34.7959
111,2538.3,2485.61,0.557886,34.8283
112,2561.16,2507.99,0.56291,34.8613
113,2584.02,2530.38,0.567934,34.8949
114,2606.87,2552.76,0.572958,34.9291
115,2629.73,2575.15,0.577982,34.9639
116,2652.59,2597.53,0.583006,34.9991
117,2675.45,2619.91,0.58803,35.0348
118,2698.31,2642.3,0.593054,35.0708
119,2721.17,2664.68,0.598078,35.1072
120,2744.03,2687.07,0.603102,35.1439
121,2766.88,2709.45,0.608126,35.1809
122,2789.74,2731.83,0.61315,35.218
123,2812.6,2754.22,0.618174,35.2552
124,2835.46,2776.6,0.623198,35.2926
125,2858.32,2798.99,0.628222,35.33
126,2881.18,2821.37,0.633246,35.3673
127,2904.04,2843.75,0.63827,35.4046
128,2926.89,2866.14,0.643294,35.4418
129,2949.75,2888.52,0.648319,35.4789
130,2972.61,2910.91,0.653343,35.5158
131,2995.47,2933.29,0.658367,35.5524
132,3018.33,2955.67,0.663391,35.5889
133,3041.19,2978.06,0.668415,35.6251
134,3064.05,3000.44,0.673439,35.661
135,3086.9,3022.83,0.678463,35.6966
136,3109.76,3045.21,0.683487,35.7319
137,3132.62,3067.59,0.688511,35.7669
138,3155.48,3089.98,0.693535,35.8016
139,3178.34,3112.36,0.698559,35.8359
140,3201.2,3134.75,0.703583,35.8699
141,3224.06,3157.13,0.708607,35.9035
142,3246.91,3179.51,0.713631,35.9368
143,3269.77,3201.9,0.718655,35.9697
144,3292.63,3224.28,0.723679,36.0023
145,3315.49,3246.67,0.728703,36.0345
146,3338.35,3269.05,0.733727,36.0664
147,3361.21,3291.44,0.738751,36.0979
148,3384.07,3313.82,0.743775,36.1291
149,3406.92,3336.2,0.748799,36.1599
150,3429.78,3358.59,0.753823,36.1904
151,3452.64,3380.97,0.758847,36.2206
152,3475.5,3403.36,0.763871,36.2504
153,3498.36,3425.74,0.768895,36.28
154,3521.22,3448.12,0.773919,36.3092
155,3544.08,3470.51,0.778943,36.338
156,3566.93,3492.89,0.783967,36.3666
157,3589.79,3515.28,0.788991,36.3949
158,3612.65,3537.66,0.794015,36.4228
159,3635.51,3560.04,0.799039,36.4505
160,3658.37,3582.43,0.804063,36.4779
161,3681.23,3604.81,0.809087,36.505
162,3704.09,3627.2,0.814111,36.5318
163,3726.94,3649.58,0.819135,36.5583
164,3749.8,3671.96,0.824159,36.5845
165,3772.66,3694.35,0.829183,36.6105
166,3795.52,3716.73,0.834207,36.6362
167,3818.38,3739.12,0.839231,36.6616
168,3841.24,3761.5,0.844255,36.6868
169,3864.09,3783.88,0.849279,36.7117
170,3886.95,3806.27,0.854303,36.7364
171,3909.81,3828.65,0.859327,36.7608
172,3932.67,3851.04,0.864351,36.785
173,3955.53,3873.42,0.869375,36.8089
174,3978.39,3895.8,0.874399,36.8326
175,4001.25,3918.19,0.879423,36.8561
176,4024.1,3940.57,0.884448,36.8794
177,4046.96,3962.96,0.889472,36.9024
178,4069.82,3985.34,0.894496,36.9252
179,4092.68,4007.72,0.89952,36.9477
180,4115.54,4030.11,0.904544,36.9701
181,4138.4,4052.49,0.909568,36.9922
182,4161.26,4074.88,0.914592,37.0141
183,4184.11,4097.26,0.919616,37.0359
184,4206.97,4119.65,0.92464,37.0574
185,4229.83,4142.03,0.929664,37.0787
186,4252.69,4164.41,0.934688,37.0998
187,4275.55,4186.8,0.939712,37.1207
188,4298.41,4209.18,0.944736,37.1415
189,4321.27,4231.57,0.94976,37.162
190,4344.12,4253.95,0.954784,37.1823
191,4366.98,4276.33,0.959808,37.2025
192,4389.84,4298.72,0.964832,37.2225
193,4412.7,4321.1,0.969856,37.2423
194,4435.56,4343.49,0.97488,37.2619
195,4458.42,4365.87,0.979904,37.2813
196,4481.28,4388.25,0.984928,37.3006
197,4504.13,4410.64,0.989952,37.3197
198,4526.99,4433.02,0.994976,37.3386
199,4549.85,4455.41,1.0,37.3574