File: 002_Mazur_ACSApplMaterInterfaces_2024/isotherms/interpolated/isotherm_TIP4P_MOF-303_298_N15.csv
,pressure_Pa,fugacity_Pa,p/p0,uptake
0,1.0,0.979242,0.000219787,2.97759
1,23.8585,23.3633,0.00524381,3.68053
2,46.7171,45.7473,0.0102678,4.29075
3,69.5756,68.1314,0.0152919,4.82548
4,92.4342,90.5155,0.0203159,5.29707
5,115.293,112.9,0.0253399,5.70875
6,138.151,135.284,0.0303639,6.06708
7,161.01,157.668,0.0353879,6.39536
8,183.868,180.052,0.040412,6.70992
9,206.727,202.436,0.045436,7.0155
10,229.585,224.82,0.05046,7.31304
11,252.444,247.204,0.055484,7.60314
12,275.303,269.588,0.060508,7.88792
13,298.161,291.972,0.0655321,8.17597
14,321.02,314.356,0.0705561,8.4926
15,343.878,336.74,0.0755801,8.89118
16,366.737,359.124,0.0806041,9.43978
17,389.595,381.508,0.0856281,10.1492
18,412.454,403.892,0.0906522,10.9795
19,435.312,426.276,0.0956762,12.0806
20,458.171,448.66,0.1007,13.8414
21,481.03,471.044,0.105724,16.2279
22,503.888,493.428,0.110748,18.9243
23,526.747,515.812,0.115772,21.288
24,549.605,538.197,0.120796,23.3019
25,572.464,560.581,0.12582,25.6311
26,595.322,582.965,0.130844,27.2822
27,618.181,605.349,0.135868,28.1938
28,641.039,627.733,0.140892,28.8124
29,663.898,650.117,0.145916,29.2857
30,686.756,672.501,0.15094,29.6643
31,709.615,694.885,0.155964,29.9769
32,732.474,717.269,0.160988,30.2425
33,755.332,739.653,0.166012,30.4737
34,778.191,762.037,0.171037,30.6787
35,801.049,784.421,0.176061,30.8628
36,823.908,806.805,0.181085,31.0295
37,846.766,829.189,0.186109,31.1815
38,869.625,851.573,0.191133,31.3208
39,892.483,873.957,0.196157,31.4491
40,915.342,896.341,0.201181,31.5677
41,938.201,918.725,0.206205,31.6781
42,961.059,941.109,0.211229,31.7812
43,983.918,963.494,0.216253,31.8781
44,1006.78,985.878,0.221277,31.9696
45,1029.63,1008.26,0.226301,32.0567
46,1052.49,1030.65,0.231325,32.1399
47,1075.35,1053.03,0.236349,32.2201
48,1098.21,1075.41,0.241373,32.2976
49,1121.07,1097.8,0.246397,32.373
50,1143.93,1120.18,0.251421,32.4466
51,1166.79,1142.57,0.256445,32.5187
52,1189.64,1164.95,0.261469,32.5896
53,1212.5,1187.33,0.266493,32.6592
54,1235.36,1209.72,0.271517,32.7277
55,1258.22,1232.1,0.276541,32.7951
56,1281.08,1254.49,0.281565,32.8614
57,1303.94,1276.87,0.286589,32.9263
58,1326.8,1299.25,0.291613,32.99
59,1349.65,1321.64,0.296637,33.0522
60,1372.51,1344.02,0.301661,33.113
61,1395.37,1366.41,0.306685,33.1722
62,1418.23,1388.79,0.311709,33.2298
63,1441.09,1411.17,0.316733,33.2858
64,1463.95,1433.56,0.321757,33.3401
65,1486.81,1455.94,0.326781,33.3928
66,1509.66,1478.33,0.331805,33.4438
67,1532.52,1500.71,0.336829,33.4933
68,1555.38,1523.09,0.341853,33.5412
69,1578.24,1545.48,0.346877,33.5876
70,1601.1,1567.86,0.351901,33.6326
71,1623.96,1590.25,0.356925,33.6761
72,1646.82,1612.63,0.361949,33.7183
73,1669.67,1635.02,0.366973,33.7591
74,1692.53,1657.4,0.371997,33.7988
75,1715.39,1679.78,0.377021,33.8372
76,1738.25,1702.17,0.382045,33.8744
77,1761.11,1724.55,0.387069,33.9106
78,1783.97,1746.94,0.392093,33.9457
79,1806.83,1769.32,0.397117,33.9798
80,1829.68,1791.7,0.402141,34.013
81,1852.54,1814.09,0.407166,34.0452
82,1875.4,1836.47,0.41219,34.0765
83,1898.26,1858.86,0.417214,34.1069
84,1921.12,1881.24,0.422238,34.1366
85,1943.98,1903.62,0.427262,34.1654
86,1966.84,1926.01,0.432286,34.1935
87,1989.69,1948.39,0.43731,34.2209
88,2012.55,1970.78,0.442334,34.2476
89,2035.41,1993.16,0.447358,34.2736
90,2058.27,2015.54,0.452382,34.2989
91,2081.13,2037.93,0.457406,34.3236
92,2103.99,2060.31,0.46243,34.3478
93,2126.85,2082.7,0.467454,34.3713
94,2149.7,2105.08,0.472478,34.3943
95,2172.56,2127.46,0.477502,34.4168
96,2195.42,2149.85,0.482526,34.4387
97,2218.28,2172.23,0.48755,34.4601
98,2241.14,2194.62,0.492574,34.4811
99,2264,2217,0.497598,34.5015
100,2286.85,2239.38,0.502622,34.5216
101,2309.71,2261.77,0.507646,34.5412
102,2332.57,2284.15,0.51267,34.5603
103,2355.43,2306.54,0.517694,34.5791
104,2378.29,2328.92,0.522718,34.5974
105,2401.15,2351.3,0.527742,34.6154
106,2424.01,2373.69,0.532766,34.633
107,2446.86,2396.07,0.53779,34.6503
108,2469.72,2418.46,0.542814,34.6672
109,2492.58,2440.84,0.547838,34.6838
110,2515.44,2463.23,0.552862,34.7
111,2538.3,2485.61,0.557886,34.716
112,2561.16,2507.99,0.56291,34.7316
113,2584.02,2530.38,0.567934,34.7469
114,2606.87,2552.76,0.572958,34.762
115,2629.73,2575.15,0.577982,34.7768
116,2652.59,2597.53,0.583006,34.7913
117,2675.45,2619.91,0.58803,34.8055
118,2698.31,2642.3,0.593054,34.8195
119,2721.17,2664.68,0.598078,34.8333
120,2744.03,2687.07,0.603102,34.8468
121,2766.88,2709.45,0.608126,34.8601
122,2789.74,2731.83,0.61315,34.8732
123,2812.6,2754.22,0.618174,34.8861
124,2835.46,2776.6,0.623198,34.8988
125,2858.32,2798.99,0.628222,34.9112
126,2881.18,2821.37,0.633246,34.9235
127,2904.04,2843.75,0.63827,34.9356
128,2926.89,2866.14,0.643294,34.9476
129,2949.75,2888.52,0.648319,34.9593
130,2972.61,2910.91,0.653343,34.9709
131,2995.47,2933.29,0.658367,34.9823
132,3018.33,2955.67,0.663391,34.9936
133,3041.19,2978.06,0.668415,35.0048
134,3064.05,3000.44,0.673439,35.0158
135,3086.9,3022.83,0.678463,35.0266
136,3109.76,3045.21,0.683487,35.0374
137,3132.62,3067.59,0.688511,35.048
138,3155.48,3089.98,0.693535,35.0585
139,3178.34,3112.36,0.698559,35.0689
140,3201.2,3134.75,0.703583,35.0792
141,3224.06,3157.13,0.708607,35.0894
142,3246.91,3179.51,0.713631,35.0995
143,3269.77,3201.9,0.718655,35.1095
144,3292.63,3224.28,0.723679,35.1194
145,3315.49,3246.67,0.728703,35.1292
146,3338.35,3269.05,0.733727,35.139
147,3361.21,3291.44,0.738751,35.1487
148,3384.07,3313.82,0.743775,35.1583
149,3406.92,3336.2,0.748799,35.1679
150,3429.78,3358.59,0.753823,35.1774
151,3452.64,3380.97,0.758847,35.1869
152,3475.5,3403.36,0.763871,35.1963
153,3498.36,3425.74,0.768895,35.2057
154,3521.22,3448.12,0.773919,35.215
155,3544.08,3470.51,0.778943,35.2244
156,3566.93,3492.89,0.783967,35.2336
157,3589.79,3515.28,0.788991,35.2429
158,3612.65,3537.66,0.794015,35.2522
159,3635.51,3560.04,0.799039,35.2614
160,3658.37,3582.43,0.804063,35.2706
161,3681.23,3604.81,0.809087,35.2798
162,3704.09,3627.2,0.814111,35.2891
163,3726.94,3649.58,0.819135,35.2983
164,3749.8,3671.96,0.824159,35.3075
165,3772.66,3694.35,0.829183,35.3167
166,3795.52,3716.73,0.834207,35.326
167,3818.38,3739.12,0.839231,35.3353
168,3841.24,3761.5,0.844255,35.3446
169,3864.09,3783.88,0.849279,35.3539
170,3886.95,3806.27,0.854303,35.3632
171,3909.81,3828.65,0.859327,35.3726
172,3932.67,3851.04,0.864351,35.382
173,3955.53,3873.42,0.869375,35.3915
174,3978.39,3895.8,0.874399,35.401
175,4001.25,3918.19,0.879423,35.4105
176,4024.1,3940.57,0.884448,35.4201
177,4046.96,3962.96,0.889472,35.4298
178,4069.82,3985.34,0.894496,35.4395
179,4092.68,4007.72,0.89952,35.4493
180,4115.54,4030.11,0.904544,35.4591
181,4138.4,4052.49,0.909568,35.469
182,4161.26,4074.88,0.914592,35.4789
183,4184.11,4097.26,0.919616,35.4889
184,4206.97,4119.65,0.92464,35.499
185,4229.83,4142.03,0.929664,35.5091
186,4252.69,4164.41,0.934688,35.5194
187,4275.55,4186.8,0.939712,35.5297
188,4298.41,4209.18,0.944736,35.54
189,4321.27,4231.57,0.94976,35.5505
190,4344.12,4253.95,0.954784,35.561
191,4366.98,4276.33,0.959808,35.5716
192,4389.84,4298.72,0.964832,35.5823
193,4412.7,4321.1,0.969856,35.5931
194,4435.56,4343.49,0.97488,35.6039
195,4458.42,4365.87,0.979904,35.6148
196,4481.28,4388.25,0.984928,35.6258
197,4504.13,4410.64,0.989952,35.6369
198,4526.99,4433.02,0.994976,35.6481
199,4549.85,4455.41,1.0,35.6593