File: 002_Mazur_ACSApplMaterInterfaces_2024/isotherms/interpolated/isotherm_TIP4P_NU-1000_298_N60.csv
,pressure_Pa,fugacity_Pa,p/p0,uptake,metastable_gas,metastable_liq
0,1.0,0.979242,0.000219787,0.0145918,,
1,23.8585,23.3633,0.00524381,0.338331,,
2,46.7171,45.7473,0.0102678,0.644329,,
3,69.5756,68.1314,0.0152919,0.934004,,
4,92.4342,90.5155,0.0203159,1.20863,,
5,115.293,112.9,0.0253399,1.46935,,
6,138.151,135.284,0.0303639,1.71719,,
7,161.01,157.668,0.0353879,1.95308,,
8,183.868,180.052,0.040412,2.17788,,
9,206.727,202.436,0.045436,2.39233,,
10,229.585,224.82,0.05046,2.59715,,
11,252.444,247.204,0.055484,2.79296,,
12,275.303,269.588,0.060508,2.98035,,
13,298.161,291.972,0.0655321,3.15985,,
14,321.02,314.356,0.0705561,3.33195,,
15,343.878,336.74,0.0755801,3.49709,,
16,366.737,359.124,0.0806041,3.65569,,
17,389.595,381.508,0.0856281,3.80813,,
18,412.454,403.892,0.0906522,3.95476,,
19,435.312,426.276,0.0956762,4.09592,,
20,458.171,448.66,0.1007,4.23189,,
21,481.03,471.044,0.105724,4.36296,,
22,503.888,493.428,0.110748,4.48939,,
23,526.747,515.812,0.115772,4.61142,,
24,549.605,538.197,0.120796,4.72928,,
25,572.464,560.581,0.12582,4.84318,,
26,595.322,582.965,0.130844,4.95331,,
27,618.181,605.349,0.135868,5.05986,,
28,641.039,627.733,0.140892,5.163,,
29,663.898,650.117,0.145916,5.26289,,
30,686.756,672.501,0.15094,5.35969,,
31,709.615,694.885,0.155964,5.45353,,
32,732.474,717.269,0.160988,5.54455,,
33,755.332,739.653,0.166012,5.63287,,
34,778.191,762.037,0.171037,5.71861,,
35,801.049,784.421,0.176061,5.80189,,
36,823.908,806.805,0.181085,5.88281,,
37,846.766,829.189,0.186109,5.96147,,
38,869.625,851.573,0.191133,6.03796,,
39,892.483,873.957,0.196157,6.11237,,
40,915.342,896.341,0.201181,6.18479,,
41,938.201,918.725,0.206205,6.25529,,
42,961.059,941.109,0.211229,6.32396,,
43,983.918,963.494,0.216253,6.39086,,
44,1006.78,985.878,0.221277,6.45606,,
45,1029.63,1008.26,0.226301,6.51963,,
46,1052.49,1030.65,0.231325,6.58163,,
47,1075.35,1053.03,0.236349,6.64212,,
48,1098.21,1075.41,0.241373,6.70115,,
49,1121.07,1097.8,0.246397,6.75878,,
50,1143.93,1120.18,0.251421,6.81506,,
51,1166.79,1142.57,0.256445,6.87003,,
52,1189.64,1164.95,0.261469,6.92375,,
53,1212.5,1187.33,0.266493,6.97627,,
54,1235.36,1209.72,0.271517,7.02761,,
55,1258.22,1232.1,0.276541,7.07783,,
56,1281.08,1254.49,0.281565,7.12696,,
57,1303.94,1276.87,0.286589,7.17503,,
58,1326.8,1299.25,0.291613,7.2221,,
59,1349.65,1321.64,0.296637,7.26819,,
60,1372.51,1344.02,0.301661,7.31333,,
61,1395.37,1366.41,0.306685,7.35756,,
62,1418.23,1388.79,0.311709,7.4009,,
63,1441.09,1411.17,0.316733,7.44339,,
64,1463.95,1433.56,0.321757,7.48506,,
65,1486.81,1455.94,0.326781,7.52593,,
66,1509.66,1478.33,0.331805,7.56602,,
67,1532.52,1500.71,0.336829,7.60538,,
68,1555.38,1523.09,0.341853,7.64401,,
69,1578.24,1545.48,0.346877,7.68194,,
70,1601.1,1567.86,0.351901,7.7192,,
71,1623.96,1590.25,0.356925,7.75581,,
72,1646.82,1612.63,0.361949,7.79179,,
73,1669.67,1635.02,0.366973,7.82715,,
74,1692.53,1657.4,0.371997,7.86193,,
75,1715.39,1679.78,0.377021,7.89614,,
76,1738.25,1702.17,0.382045,7.92979,,
77,1761.11,1724.55,0.387069,7.96291,,
78,1783.97,1746.94,0.392093,7.99551,,
79,1806.83,1769.32,0.397117,8.02762,,
80,1829.68,1791.7,0.402141,8.05924,,
81,1852.54,1814.09,0.407166,8.0904,,
82,1875.4,1836.47,0.41219,8.1211,,
83,1898.26,1858.86,0.417214,8.15137,,
84,1921.12,1881.24,0.422238,8.18122,,
85,1943.98,1903.62,0.427262,8.21066,,
86,1966.84,1926.01,0.432286,8.23971,,
87,1989.69,1948.39,0.43731,8.26838,,
88,2012.55,1970.78,0.442334,8.29668,,
89,2035.41,1993.16,0.447358,8.32463,,
90,2058.27,2015.54,0.452382,8.35223,,
91,2081.13,2037.93,0.457406,8.37951,,
92,2103.99,2060.31,0.46243,8.40647,,
93,2126.85,2082.7,0.467454,8.43313,,
94,2149.7,2105.08,0.472478,8.45949,,
95,2172.56,2127.46,0.477502,8.48558,,381.61
96,2195.42,2149.85,0.482526,8.51138,,383.948
97,2218.28,2172.23,0.48755,8.53693,,386.22
98,2241.14,2194.62,0.492574,8.56223,,388.398
99,2264,2217,0.497598,8.58728,,390.34
100,2286.85,2239.38,0.502622,8.61211,,392.417
101,2309.71,2261.77,0.507646,8.63671,,394.367
102,2332.57,2284.15,0.51267,8.6611,,396.243
103,2355.43,2306.54,0.517694,8.68529,,398.074
104,2378.29,2328.92,0.522718,8.70929,,399.875
105,2401.15,2351.3,0.527742,8.7331,,401.655
106,2424.01,2373.69,0.532766,8.75674,,403.418
107,2446.86,2396.07,0.53779,8.78021,,405.168
108,2469.72,2418.46,0.542814,8.80353,,406.91
109,2492.58,2440.84,0.547838,8.82669,,408.663
110,2515.44,2463.23,0.552862,8.84972,,410.487
111,2538.3,2485.61,0.557886,8.87261,,412.608
112,2561.16,2507.99,0.56291,8.89538,,415.853
113,2584.02,2530.38,0.567934,8.91803,,422.884
114,2606.87,2552.76,0.572958,8.94058,,439.086
115,2629.73,2575.15,0.577982,8.96302,,463.887
116,2652.59,2597.53,0.583006,8.98538,,482.946
117,2675.45,2619.91,0.58803,9.00764,,491.394
118,2698.31,2642.3,0.593054,9.02984,,494.501
119,2721.17,2664.68,0.598078,9.05196,,495.807
120,2744.03,2687.07,0.603102,9.07402,,496.564
121,2766.88,2709.45,0.608126,9.09603,,497.152
122,2789.74,2731.83,0.61315,9.118,,497.685
123,2812.6,2754.22,0.618174,9.13992,,498.195
124,2835.46,2776.6,0.623198,9.16182,,498.694
125,2858.32,2798.99,0.628222,9.18369,,499.186
126,2881.18,2821.37,0.633246,9.20554,,499.672
127,2904.04,2843.75,0.63827,9.22738,,500.152
128,2926.89,2866.14,0.643294,9.24923,,500.627
129,2949.75,2888.52,0.648319,9.27108,,501.097
130,2972.61,2910.91,0.653343,9.29294,,501.562
131,2995.47,2933.29,0.658367,9.31483,,502.024
132,3018.33,2955.67,0.663391,9.33675,,502.481
133,3041.19,2978.06,0.668415,9.3587,,502.934
134,3064.05,3000.44,0.673439,9.38069,,503.384
135,3086.9,3022.83,0.678463,9.40274,,503.83
136,3109.76,3045.21,0.683487,9.42484,,504.273
137,3132.62,3067.59,0.688511,9.44702,,504.713
138,3155.48,3089.98,0.693535,9.46926,,505.15
139,3178.34,3112.36,0.698559,9.49159,,505.584
140,3201.2,3134.75,0.703583,9.51401,,506.016
141,3224.06,3157.13,0.708607,9.53653,,506.444
142,3246.91,3179.51,0.713631,9.55915,,506.87
143,3269.77,3201.9,0.718655,9.58189,,507.293
144,3292.63,3224.28,0.723679,9.60475,,507.713
145,3315.49,3246.67,0.728703,9.62775,,508.131
146,3338.35,3269.05,0.733727,9.65088,,508.545
147,3361.21,3291.44,0.738751,9.67415,,508.956
148,3384.07,3313.82,0.743775,9.69759,,509.364
149,3406.92,3336.2,0.748799,9.72119,,509.768
150,3429.78,3358.59,0.753823,9.74496,,510.168
151,3452.64,3380.97,0.758847,9.76892,,510.565
152,3475.5,3403.36,0.763871,9.79306,,510.957
153,3498.36,3425.74,0.768895,9.81741,,511.345
154,3521.22,3448.12,0.773919,9.84197,,511.729
155,3544.08,3470.51,0.778943,512.108,9.86674,
156,3566.93,3492.89,0.783967,512.481,9.89175,
157,3589.79,3515.28,0.788991,512.85,9.91699,
158,3612.65,3537.66,0.794015,513.213,9.94249,
159,3635.51,3560.04,0.799039,513.57,9.96824,
160,3658.37,3582.43,0.804063,513.922,9.99426,
161,3681.23,3604.81,0.809087,514.269,10.0206,
162,3704.09,3627.2,0.814111,514.609,10.0471,
163,3726.94,3649.58,0.819135,514.943,10.074,
164,3749.8,3671.96,0.824159,515.272,10.1012,
165,3772.66,3694.35,0.829183,515.594,10.1288,
166,3795.52,3716.73,0.834207,515.911,10.1566,
167,3818.38,3739.12,0.839231,516.222,10.1848,
168,3841.24,3761.5,0.844255,516.527,10.2134,
169,3864.09,3783.88,0.849279,516.826,10.2423,
170,3886.95,3806.27,0.854303,517.119,10.2716,
171,3909.81,3828.65,0.859327,517.407,10.3013,
172,3932.67,3851.04,0.864351,517.689,10.3314,
173,3955.53,3873.42,0.869375,517.966,10.3619,
174,3978.39,3895.8,0.874399,518.238,10.3929,
175,4001.25,3918.19,0.879423,518.505,10.4243,
176,4024.1,3940.57,0.884448,518.767,10.4562,
177,4046.96,3962.96,0.889472,519.024,10.4885,
178,4069.82,3985.34,0.894496,519.277,10.5213,
179,4092.68,4007.72,0.89952,519.525,10.5546,
180,4115.54,4030.11,0.904544,519.769,10.5884,
181,4138.4,4052.49,0.909568,520.009,10.6228,
182,4161.26,4074.88,0.914592,520.245,10.6577,
183,4184.11,4097.26,0.919616,520.477,10.6931,
184,4206.97,4119.65,0.92464,520.706,10.7291,
185,4229.83,4142.03,0.929664,520.931,10.7657,
186,4252.69,4164.41,0.934688,521.154,10.8029,
187,4275.55,4186.8,0.939712,521.372,10.8407,
188,4298.41,4209.18,0.944736,521.588,10.8792,
189,4321.27,4231.57,0.94976,521.802,10.9183,
190,4344.12,4253.95,0.954784,522.012,10.958,
191,4366.98,4276.33,0.959808,522.22,10.9985,
192,4389.84,4298.72,0.964832,522.426,11.0396,
193,4412.7,4321.1,0.969856,522.629,11.0814,
194,4435.56,4343.49,0.97488,522.83,11.124,
195,4458.42,4365.87,0.979904,523.029,11.1673,
196,4481.28,4388.25,0.984928,523.226,11.2114,
197,4504.13,4410.64,0.989952,523.422,11.2563,
198,4526.99,4433.02,0.994976,523.615,11.302,
199,4549.85,4455.41,1.0,523.807,11.3485,