File: 002_Mazur_ACSApplMaterInterfaces_2024/isotherms/interpolated/isotherm_TIP4P_MOF-LA2_298_N18.csv
,pressure_Pa,p/p0,fugacity_Pa,uptake,metastable_gas
0,1.0,0.000219787,0.979242,0.116669,
1,23.8585,0.00524381,23.3633,1.95384,
2,46.7171,0.0102678,45.7473,2.94727,
3,69.5756,0.0152919,68.1314,3.56809,
4,92.4342,0.0203159,90.5155,3.97905,
5,115.293,0.0253399,112.9,4.25683,
6,138.151,0.0303639,135.284,4.46322,
7,161.01,0.0353879,157.668,4.63674,
8,183.868,0.040412,180.052,4.79495,
9,206.727,0.045436,202.436,4.94467,
10,229.585,0.05046,224.82,5.08838,
11,252.444,0.055484,247.204,5.22697,
12,275.303,0.060508,269.588,5.36086,
13,298.161,0.0655321,291.972,5.49033,
14,321.02,0.0705561,314.356,5.61558,
15,343.878,0.0755801,336.74,5.73683,
16,366.737,0.0806041,359.124,5.85425,
17,389.595,0.0856281,381.508,5.96803,
18,412.454,0.0906522,403.892,6.07834,
19,435.312,0.0956762,426.276,6.18532,
20,458.171,0.1007,448.66,6.28913,
21,481.03,0.105724,471.044,6.38991,
22,503.888,0.110748,493.428,6.48779,
23,526.747,0.115772,515.812,6.58289,
24,549.605,0.120796,538.197,6.67533,
25,572.464,0.12582,560.581,6.76522,
26,595.322,0.130844,582.965,6.85266,
27,618.181,0.135868,605.349,6.93775,
28,641.039,0.140892,627.733,7.0206,
29,663.898,0.145916,650.117,7.10128,
30,686.756,0.15094,672.501,7.1799,
31,709.615,0.155964,694.885,7.25655,
32,732.474,0.160988,717.269,7.33133,
33,755.332,0.166012,739.653,7.40433,
34,778.191,0.171037,762.037,7.47568,
35,801.049,0.176061,784.421,7.54552,
36,823.908,0.181085,806.805,7.61401,
37,846.766,0.186109,829.189,7.68135,
38,869.625,0.191133,851.573,7.74779,
39,892.483,0.196157,873.957,7.81362,
40,915.342,0.201181,896.341,7.87924,
41,938.201,0.206205,918.725,7.94513,
42,961.059,0.211229,941.109,8.01193,
43,983.918,0.216253,963.494,8.08047,
44,1006.78,0.221277,985.878,8.15185,
45,1029.63,0.226301,1008.26,8.22757,
46,1052.49,0.231325,1030.65,8.30974,
47,1075.35,0.236349,1053.03,8.40146,
48,1098.21,0.241373,1075.41,8.50741,
49,1121.07,0.246397,1097.8,8.63561,
50,1143.93,0.251421,1120.18,8.81533,
51,1166.79,0.256445,1142.57,9.57613,
52,1189.64,0.261469,1164.95,24.0061,9.35867
53,1212.5,0.266493,1187.33,39.1204,9.91974
54,1235.36,0.271517,1209.72,53.898,10.6973
55,1258.22,0.276541,1232.1,54.3651,24.7212
56,1281.08,0.281565,1254.49,54.7242,
57,1303.94,0.286589,1276.87,55.0484,
58,1326.8,0.291613,1299.25,55.3517,
59,1349.65,0.296637,1321.64,55.6413,
60,1372.51,0.301661,1344.02,55.9222,
61,1395.37,0.306685,1366.41,56.1977,
62,1418.23,0.311709,1388.79,56.47,
63,1441.09,0.316733,1411.17,56.7405,
64,1463.95,0.321757,1433.56,57.0096,
65,1486.81,0.326781,1455.94,57.277,
66,1509.66,0.331805,1478.33,57.5417,
67,1532.52,0.336829,1500.71,57.8025,
68,1555.38,0.341853,1523.09,58.0577,
69,1578.24,0.346877,1545.48,58.3063,
70,1601.1,0.351901,1567.86,58.547,
71,1623.96,0.356925,1590.25,58.7794,
72,1646.82,0.361949,1612.63,59.0031,
73,1669.67,0.366973,1635.02,59.2183,
74,1692.53,0.371997,1657.4,59.4253,
75,1715.39,0.377021,1679.78,59.6248,
76,1738.25,0.382045,1702.17,59.8175,
77,1761.11,0.387069,1724.55,60.004,
78,1783.97,0.392093,1746.94,60.1851,
79,1806.83,0.397117,1769.32,60.3615,
80,1829.68,0.402141,1791.7,60.5338,
81,1852.54,0.407166,1814.09,60.7026,
82,1875.4,0.41219,1836.47,60.8682,
83,1898.26,0.417214,1858.86,61.0309,
84,1921.12,0.422238,1881.24,61.191,
85,1943.98,0.427262,1903.62,61.3484,
86,1966.84,0.432286,1926.01,61.5033,
87,1989.69,0.43731,1948.39,61.6555,
88,2012.55,0.442334,1970.78,61.8049,
89,2035.41,0.447358,1993.16,61.9515,
90,2058.27,0.452382,2015.54,62.095,
91,2081.13,0.457406,2037.93,62.2354,
92,2103.99,0.46243,2060.31,62.3726,
93,2126.85,0.467454,2082.7,62.5064,
94,2149.7,0.472478,2105.08,62.6368,
95,2172.56,0.477502,2127.46,62.7638,
96,2195.42,0.482526,2149.85,62.8875,
97,2218.28,0.48755,2172.23,63.0077,
98,2241.14,0.492574,2194.62,63.1247,
99,2264,0.497598,2217,63.2384,
100,2286.85,0.502622,2239.38,63.349,
101,2309.71,0.507646,2261.77,63.4566,
102,2332.57,0.51267,2284.15,63.5613,
103,2355.43,0.517694,2306.54,63.6632,
104,2378.29,0.522718,2328.92,63.7624,
105,2401.15,0.527742,2351.3,63.8591,
106,2424.01,0.532766,2373.69,63.9534,
107,2446.86,0.53779,2396.07,64.0454,
108,2469.72,0.542814,2418.46,64.1353,
109,2492.58,0.547838,2440.84,64.2232,
110,2515.44,0.552862,2463.23,64.3091,
111,2538.3,0.557886,2485.61,64.3933,
112,2561.16,0.56291,2507.99,64.4758,
113,2584.02,0.567934,2530.38,64.5567,
114,2606.87,0.572958,2552.76,64.6361,
115,2629.73,0.577982,2575.15,64.7142,
116,2652.59,0.583006,2597.53,64.791,
117,2675.45,0.58803,2619.91,64.8666,
118,2698.31,0.593054,2642.3,64.941,
119,2721.17,0.598078,2664.68,65.0144,
120,2744.03,0.603102,2687.07,65.0869,
121,2766.88,0.608126,2709.45,65.1583,
122,2789.74,0.61315,2731.83,65.229,
123,2812.6,0.618174,2754.22,65.2987,
124,2835.46,0.623198,2776.6,65.3677,
125,2858.32,0.628222,2798.99,65.4359,
126,2881.18,0.633246,2821.37,65.5033,
127,2904.04,0.63827,2843.75,65.57,
128,2926.89,0.643294,2866.14,65.636,
129,2949.75,0.648319,2888.52,65.7013,
130,2972.61,0.653343,2910.91,65.766,
131,2995.47,0.658367,2933.29,65.8299,
132,3018.33,0.663391,2955.67,65.8931,
133,3041.19,0.668415,2978.06,65.9556,
134,3064.05,0.673439,3000.44,66.0175,
135,3086.9,0.678463,3022.83,66.0786,
136,3109.76,0.683487,3045.21,66.139,
137,3132.62,0.688511,3067.59,66.1988,
138,3155.48,0.693535,3089.98,66.2578,
139,3178.34,0.698559,3112.36,66.316,
140,3201.2,0.703583,3134.75,66.3736,
141,3224.06,0.708607,3157.13,66.4304,
142,3246.91,0.713631,3179.51,66.4865,
143,3269.77,0.718655,3201.9,66.5418,
144,3292.63,0.723679,3224.28,66.5964,
145,3315.49,0.728703,3246.67,66.6503,
146,3338.35,0.733727,3269.05,66.7034,
147,3361.21,0.738751,3291.44,66.7558,
148,3384.07,0.743775,3313.82,66.8075,
149,3406.92,0.748799,3336.2,66.8584,
150,3429.78,0.753823,3358.59,66.9086,
151,3452.64,0.758847,3380.97,66.9581,
152,3475.5,0.763871,3403.36,67.0069,
153,3498.36,0.768895,3425.74,67.055,
154,3521.22,0.773919,3448.12,67.1024,
155,3544.08,0.778943,3470.51,67.1492,
156,3566.93,0.783967,3492.89,67.1952,
157,3589.79,0.788991,3515.28,67.2406,
158,3612.65,0.794015,3537.66,67.2854,
159,3635.51,0.799039,3560.04,67.3295,
160,3658.37,0.804063,3582.43,67.373,
161,3681.23,0.809087,3604.81,67.4159,
162,3704.09,0.814111,3627.2,67.4582,
163,3726.94,0.819135,3649.58,67.4999,
164,3749.8,0.824159,3671.96,67.541,
165,3772.66,0.829183,3694.35,67.5815,
166,3795.52,0.834207,3716.73,67.6215,
167,3818.38,0.839231,3739.12,67.6609,
168,3841.24,0.844255,3761.5,67.6998,
169,3864.09,0.849279,3783.88,67.7382,
170,3886.95,0.854303,3806.27,67.7761,
171,3909.81,0.859327,3828.65,67.8134,
172,3932.67,0.864351,3851.04,67.8503,
173,3955.53,0.869375,3873.42,67.8867,
174,3978.39,0.874399,3895.8,67.9226,
175,4001.25,0.879423,3918.19,67.9581,
176,4024.1,0.884448,3940.57,67.9931,
177,4046.96,0.889472,3962.96,68.0277,
178,4069.82,0.894496,3985.34,68.0619,
179,4092.68,0.89952,4007.72,68.0956,
180,4115.54,0.904544,4030.11,68.129,
181,4138.4,0.909568,4052.49,68.162,
182,4161.26,0.914592,4074.88,68.1945,
183,4184.11,0.919616,4097.26,68.2267,
184,4206.97,0.92464,4119.65,68.2586,
185,4229.83,0.929664,4142.03,68.2901,
186,4252.69,0.934688,4164.41,68.3212,
187,4275.55,0.939712,4186.8,68.3521,
188,4298.41,0.944736,4209.18,68.3826,
189,4321.27,0.94976,4231.57,68.4128,
190,4344.12,0.954784,4253.95,68.4427,
191,4366.98,0.959808,4276.33,68.4723,
192,4389.84,0.964832,4298.72,68.5016,
193,4412.7,0.969856,4321.1,68.5307,
194,4435.56,0.97488,4343.49,68.5595,
195,4458.42,0.979904,4365.87,68.5881,
196,4481.28,0.984928,4388.25,68.6164,
197,4504.13,0.989952,4410.64,68.6445,
198,4526.99,0.994976,4433.02,68.6724,
199,4549.85,1.0,4455.41,68.7001,