File: 002_Mazur_ACSApplMaterInterfaces_2024/isotherms/interpolated/isotherm_TIP4P_MOF-303_298_N37.csv
,pressure_Pa,fugacity_Pa,p/p0,uptake
0,1.0,0.979242,0.000219787,3.47939
1,23.8585,23.3633,0.00524381,4.20314
2,46.7171,45.7473,0.0102678,4.72701
3,69.5756,68.1314,0.0152919,5.10898
4,92.4342,90.5155,0.0203159,5.46362
5,115.293,112.9,0.0253399,5.79636
6,138.151,135.284,0.0303639,6.10819
7,161.01,157.668,0.0353879,6.40556
8,183.868,180.052,0.040412,6.68968
9,206.727,202.436,0.045436,6.9594
10,229.585,224.82,0.05046,7.21722
11,252.444,247.204,0.055484,7.4711
12,275.303,269.588,0.060508,7.7357
13,298.161,291.972,0.0655321,8.03285
14,321.02,314.356,0.0705561,8.38623
15,343.878,336.74,0.0755801,8.81568
16,366.737,359.124,0.0806041,9.34352
17,389.595,381.508,0.0856281,10.0014
18,412.454,403.892,0.0906522,10.8109
19,435.312,426.276,0.0956762,11.804
20,458.171,448.66,0.1007,13.2437
21,481.03,471.044,0.105724,15.5157
22,503.888,493.428,0.110748,18.4368
23,526.747,515.812,0.115772,21.4916
24,549.605,538.197,0.120796,23.7985
25,572.464,560.581,0.12582,25.4468
26,595.322,582.965,0.130844,26.5473
27,618.181,605.349,0.135868,27.4273
28,641.039,627.733,0.140892,28.1147
29,663.898,650.117,0.145916,28.657
30,686.756,672.501,0.15094,29.1394
31,709.615,694.885,0.155964,29.5926
32,732.474,717.269,0.160988,30.0028
33,755.332,739.653,0.166012,30.3518
34,778.191,762.037,0.171037,30.6369
35,801.049,784.421,0.176061,30.8676
36,823.908,806.805,0.181085,31.0564
37,846.766,829.189,0.186109,31.2146
38,869.625,851.573,0.191133,31.3508
39,892.483,873.957,0.196157,31.4712
40,915.342,896.341,0.201181,31.5801
41,938.201,918.725,0.206205,31.6807
42,961.059,941.109,0.211229,31.7751
43,983.918,963.494,0.216253,31.8648
44,1006.78,985.878,0.221277,31.951
45,1029.63,1008.26,0.226301,32.0345
46,1052.49,1030.65,0.231325,32.1158
47,1075.35,1053.03,0.236349,32.1952
48,1098.21,1075.41,0.241373,32.2728
49,1121.07,1097.8,0.246397,32.3487
50,1143.93,1120.18,0.251421,32.4229
51,1166.79,1142.57,0.256445,32.4953
52,1189.64,1164.95,0.261469,32.5656
53,1212.5,1187.33,0.266493,32.6339
54,1235.36,1209.72,0.271517,32.7
55,1258.22,1232.1,0.276541,32.764
56,1281.08,1254.49,0.281565,32.8256
57,1303.94,1276.87,0.286589,32.885
58,1326.8,1299.25,0.291613,32.9422
59,1349.65,1321.64,0.296637,32.9973
60,1372.51,1344.02,0.301661,33.0504
61,1395.37,1366.41,0.306685,33.1015
62,1418.23,1388.79,0.311709,33.1508
63,1441.09,1411.17,0.316733,33.1984
64,1463.95,1433.56,0.321757,33.2445
65,1486.81,1455.94,0.326781,33.2891
66,1509.66,1478.33,0.331805,33.3323
67,1532.52,1500.71,0.336829,33.3742
68,1555.38,1523.09,0.341853,33.4149
69,1578.24,1545.48,0.346877,33.4546
70,1601.1,1567.86,0.351901,33.4931
71,1623.96,1590.25,0.356925,33.5308
72,1646.82,1612.63,0.361949,33.5675
73,1669.67,1635.02,0.366973,33.6033
74,1692.53,1657.4,0.371997,33.6383
75,1715.39,1679.78,0.377021,33.6726
76,1738.25,1702.17,0.382045,33.7061
77,1761.11,1724.55,0.387069,33.7389
78,1783.97,1746.94,0.392093,33.7711
79,1806.83,1769.32,0.397117,33.8026
80,1829.68,1791.7,0.402141,33.8335
81,1852.54,1814.09,0.407166,33.8639
82,1875.4,1836.47,0.41219,33.8937
83,1898.26,1858.86,0.417214,33.923
84,1921.12,1881.24,0.422238,33.9518
85,1943.98,1903.62,0.427262,33.9801
86,1966.84,1926.01,0.432286,34.008
87,1989.69,1948.39,0.43731,34.0354
88,2012.55,1970.78,0.442334,34.0625
89,2035.41,1993.16,0.447358,34.0892
90,2058.27,2015.54,0.452382,34.1155
91,2081.13,2037.93,0.457406,34.1415
92,2103.99,2060.31,0.46243,34.1672
93,2126.85,2082.7,0.467454,34.1926
94,2149.7,2105.08,0.472478,34.2177
95,2172.56,2127.46,0.477502,34.2425
96,2195.42,2149.85,0.482526,34.267
97,2218.28,2172.23,0.48755,34.2913
98,2241.14,2194.62,0.492574,34.3154
99,2264,2217,0.497598,34.3392
100,2286.85,2239.38,0.502622,34.3627
101,2309.71,2261.77,0.507646,34.3861
102,2332.57,2284.15,0.51267,34.4092
103,2355.43,2306.54,0.517694,34.4322
104,2378.29,2328.92,0.522718,34.4549
105,2401.15,2351.3,0.527742,34.4773
106,2424.01,2373.69,0.532766,34.4996
107,2446.86,2396.07,0.53779,34.5217
108,2469.72,2418.46,0.542814,34.5435
109,2492.58,2440.84,0.547838,34.5651
110,2515.44,2463.23,0.552862,34.5865
111,2538.3,2485.61,0.557886,34.6077
112,2561.16,2507.99,0.56291,34.6286
113,2584.02,2530.38,0.567934,34.6493
114,2606.87,2552.76,0.572958,34.6698
115,2629.73,2575.15,0.577982,34.69
116,2652.59,2597.53,0.583006,34.71
117,2675.45,2619.91,0.58803,34.7298
118,2698.31,2642.3,0.593054,34.7493
119,2721.17,2664.68,0.598078,34.7686
120,2744.03,2687.07,0.603102,34.7876
121,2766.88,2709.45,0.608126,34.8064
122,2789.74,2731.83,0.61315,34.8249
123,2812.6,2754.22,0.618174,34.8432
124,2835.46,2776.6,0.623198,34.8612
125,2858.32,2798.99,0.628222,34.8789
126,2881.18,2821.37,0.633246,34.8965
127,2904.04,2843.75,0.63827,34.9137
128,2926.89,2866.14,0.643294,34.9308
129,2949.75,2888.52,0.648319,34.9475
130,2972.61,2910.91,0.653343,34.9641
131,2995.47,2933.29,0.658367,34.9804
132,3018.33,2955.67,0.663391,34.9965
133,3041.19,2978.06,0.668415,35.0123
134,3064.05,3000.44,0.673439,35.0279
135,3086.9,3022.83,0.678463,35.0433
136,3109.76,3045.21,0.683487,35.0585
137,3132.62,3067.59,0.688511,35.0734
138,3155.48,3089.98,0.693535,35.0882
139,3178.34,3112.36,0.698559,35.1027
140,3201.2,3134.75,0.703583,35.117
141,3224.06,3157.13,0.708607,35.1312
142,3246.91,3179.51,0.713631,35.1451
143,3269.77,3201.9,0.718655,35.1589
144,3292.63,3224.28,0.723679,35.1725
145,3315.49,3246.67,0.728703,35.1859
146,3338.35,3269.05,0.733727,35.1992
147,3361.21,3291.44,0.738751,35.2122
148,3384.07,3313.82,0.743775,35.2252
149,3406.92,3336.2,0.748799,35.2379
150,3429.78,3358.59,0.753823,35.2506
151,3452.64,3380.97,0.758847,35.263
152,3475.5,3403.36,0.763871,35.2754
153,3498.36,3425.74,0.768895,35.2876
154,3521.22,3448.12,0.773919,35.2997
155,3544.08,3470.51,0.778943,35.3116
156,3566.93,3492.89,0.783967,35.3235
157,3589.79,3515.28,0.788991,35.3352
158,3612.65,3537.66,0.794015,35.3468
159,3635.51,3560.04,0.799039,35.3583
160,3658.37,3582.43,0.804063,35.3697
161,3681.23,3604.81,0.809087,35.381
162,3704.09,3627.2,0.814111,35.3923
163,3726.94,3649.58,0.819135,35.4034
164,3749.8,3671.96,0.824159,35.4145
165,3772.66,3694.35,0.829183,35.4254
166,3795.52,3716.73,0.834207,35.4363
167,3818.38,3739.12,0.839231,35.4472
168,3841.24,3761.5,0.844255,35.4579
169,3864.09,3783.88,0.849279,35.4686
170,3886.95,3806.27,0.854303,35.4793
171,3909.81,3828.65,0.859327,35.4898
172,3932.67,3851.04,0.864351,35.5003
173,3955.53,3873.42,0.869375,35.5108
174,3978.39,3895.8,0.874399,35.5212
175,4001.25,3918.19,0.879423,35.5316
176,4024.1,3940.57,0.884448,35.5419
177,4046.96,3962.96,0.889472,35.5522
178,4069.82,3985.34,0.894496,35.5624
179,4092.68,4007.72,0.89952,35.5726
180,4115.54,4030.11,0.904544,35.5828
181,4138.4,4052.49,0.909568,35.5929
182,4161.26,4074.88,0.914592,35.603
183,4184.11,4097.26,0.919616,35.613
184,4206.97,4119.65,0.92464,35.6231
185,4229.83,4142.03,0.929664,35.6331
186,4252.69,4164.41,0.934688,35.643
187,4275.55,4186.8,0.939712,35.653
188,4298.41,4209.18,0.944736,35.6629
189,4321.27,4231.57,0.94976,35.6728
190,4344.12,4253.95,0.954784,35.6827
191,4366.98,4276.33,0.959808,35.6925
192,4389.84,4298.72,0.964832,35.7024
193,4412.7,4321.1,0.969856,35.7122
194,4435.56,4343.49,0.97488,35.722
195,4458.42,4365.87,0.979904,35.7317
196,4481.28,4388.25,0.984928,35.7415
197,4504.13,4410.64,0.989952,35.7512
198,4526.99,4433.02,0.994976,35.7609
199,4549.85,4455.41,1.0,35.7706