File: 002_Mazur_ACSApplMaterInterfaces_2024/isotherms/reference/isotherm_TIP4P_NU-1000_298_WLTMMC.csv
,pressure,p/p0,fugacity,uptake,metastable_gas,metastable_liq
0,1.0,0.000219787,0.979242,0.000270998,,
1,23.8585,0.00524381,23.3633,0.00647083,,
2,46.7171,0.0102678,45.7473,0.012681,,
3,69.5756,0.0152919,68.1314,0.0189019,,
4,92.4342,0.0203159,90.5155,0.0251341,,
5,115.293,0.0253399,112.9,0.0313781,,
6,138.151,0.0303639,135.284,0.0376345,,
7,161.01,0.0353879,157.668,0.0439038,,
8,183.868,0.040412,180.052,0.0501866,,
9,206.727,0.045436,202.436,0.0564835,,
10,229.585,0.05046,224.82,0.0627951,,
11,252.444,0.055484,247.204,0.069122,,
12,275.303,0.060508,269.588,0.0754651,,
13,298.161,0.0655321,291.972,0.0818248,,
14,321.02,0.0705561,314.356,0.0882021,,
15,343.878,0.0755801,336.74,0.0945976,,
16,366.737,0.0806041,359.124,0.101012,,
17,389.595,0.0856281,381.508,0.107447,,
18,412.454,0.0906522,403.892,0.113902,,
19,435.312,0.0956762,426.276,0.120378,,
20,458.171,0.1007,448.66,0.126877,,
21,481.03,0.105724,471.044,0.1334,,
22,503.888,0.110748,493.428,0.139947,,
23,526.747,0.115772,515.812,0.14652,,
24,549.605,0.120796,538.197,0.153119,,
25,572.464,0.12582,560.581,0.159745,,
26,595.322,0.130844,582.965,0.166401,,
27,618.181,0.135868,605.349,0.173086,,
28,641.039,0.140892,627.733,0.179803,,
29,663.898,0.145916,650.117,0.186552,,
30,686.756,0.15094,672.501,0.193335,,
31,709.615,0.155964,694.885,0.200153,,
32,732.474,0.160988,717.269,0.207008,,
33,755.332,0.166012,739.653,0.213902,,
34,778.191,0.171037,762.037,0.220834,,
35,801.049,0.176061,784.421,0.227809,,
36,823.908,0.181085,806.805,0.234826,,
37,846.766,0.186109,829.189,0.241888,,
38,869.625,0.191133,851.573,0.248997,,
39,892.483,0.196157,873.957,0.256154,,
40,915.342,0.201181,896.341,0.263362,,
41,938.201,0.206205,918.725,0.270623,,
42,961.059,0.211229,941.109,0.277937,,
43,983.918,0.216253,963.494,0.285309,,
44,1006.78,0.221277,985.878,0.29274,,
45,1029.63,0.226301,1008.26,0.300232,,
46,1052.49,0.231325,1030.65,0.307789,,
47,1075.35,0.236349,1053.03,0.315412,,
48,1098.21,0.241373,1075.41,0.323104,,
49,1121.07,0.246397,1097.8,0.330868,,
50,1143.93,0.251421,1120.18,0.338706,,
51,1166.79,0.256445,1142.57,0.346623,,
52,1189.64,0.261469,1164.95,0.354621,,
53,1212.5,0.266493,1187.33,0.362702,,
54,1235.36,0.271517,1209.72,0.370872,,
55,1258.22,0.276541,1232.1,0.379132,,
56,1281.08,0.281565,1254.49,0.387486,,
57,1303.94,0.286589,1276.87,0.39594,,
58,1326.8,0.291613,1299.25,0.404495,,
59,1349.65,0.296637,1321.64,0.413157,,
60,1372.51,0.301661,1344.02,0.421929,,
61,1395.37,0.306685,1366.41,0.430816,,
62,1418.23,0.311709,1388.79,0.439822,,
63,1441.09,0.316733,1411.17,0.448952,,
64,1463.95,0.321757,1433.56,0.458212,,
65,1486.81,0.326781,1455.94,0.467605,,
66,1509.66,0.331805,1478.33,0.477138,,
67,1532.52,0.336829,1500.71,0.486815,,
68,1555.38,0.341853,1523.09,0.496642,,
69,1578.24,0.346877,1545.48,0.506625,,
70,1601.1,0.351901,1567.86,0.516771,,
71,1623.96,0.356925,1590.25,0.527085,,
72,1646.82,0.361949,1612.63,0.537573,,
73,1669.67,0.366973,1635.02,0.548243,,
74,1692.53,0.371997,1657.4,0.559101,,
75,1715.39,0.377021,1679.78,0.570155,,
76,1738.25,0.382045,1702.17,0.581412,,
77,1761.11,0.387069,1724.55,0.592879,,
78,1783.97,0.392093,1746.94,0.604564,,
79,1806.83,0.397117,1769.32,0.616476,,
80,1829.68,0.402141,1791.7,0.628623,,
81,1852.54,0.407166,1814.09,0.641013,,
82,1875.4,0.41219,1836.47,0.653656,,
83,1898.26,0.417214,1858.86,0.66656,,
84,1921.12,0.422238,1881.24,0.679735,,
85,1943.98,0.427262,1903.62,0.693191,,
86,1966.84,0.432286,1926.01,0.706937,,
87,1989.69,0.43731,1948.39,0.720983,,
88,2012.55,0.442334,1970.78,0.735342,,
89,2035.41,0.447358,1993.16,0.750022,,
90,2058.27,0.452382,2015.54,0.765035,,
91,2081.13,0.457406,2037.93,0.780393,,
92,2103.99,0.46243,2060.31,0.796106,,
93,2126.85,0.467454,2082.7,0.812188,,
94,2149.7,0.472478,2105.08,0.828649,,
95,2172.56,0.477502,2127.46,0.845503,,
96,2195.42,0.482526,2149.85,0.862761,,
97,2218.28,0.48755,2172.23,0.880438,,389.44
98,2241.14,0.492574,2194.62,0.898545,,391.672
99,2264,0.497598,2217,0.917096,,393.709
100,2286.85,0.502622,2239.38,0.936105,,395.685
101,2309.71,0.507646,2261.77,0.955585,,397.34
102,2332.57,0.51267,2284.15,0.975551,,399.069
103,2355.43,0.517694,2306.54,0.996016,,400.582
104,2378.29,0.522718,2328.92,1.017,,401.921
105,2401.15,0.527742,2351.3,1.0385,,403.121
106,2424.01,0.532766,2373.69,1.06055,,404.214
107,2446.86,0.53779,2396.07,1.08316,,405.242
108,2469.72,0.542814,2418.46,1.10634,,406.263
109,2492.58,0.547838,2440.84,1.13011,,407.368
110,2515.44,0.552862,2463.23,1.15448,,408.705
111,2538.3,0.557886,2485.61,1.17947,,410.519
112,2561.16,0.56291,2507.99,1.20509,,413.186
113,2584.02,0.567934,2530.38,1.23136,,417.18
114,2606.87,0.572958,2552.76,1.2583,,422.841
115,2629.73,0.577982,2575.15,1.28591,,429.919
116,2652.59,0.583006,2597.53,1.31421,,437.373
117,2675.45,0.58803,2619.91,1.34323,,443.971
118,2698.31,0.593054,2642.3,1.37297,,449.108
119,2721.17,0.598078,2664.68,1.40344,,452.888
120,2744.03,0.603102,2687.07,1.43468,,455.7
121,2766.88,0.608126,2709.45,1.46668,,457.907
122,2789.74,0.61315,2731.83,1.49946,,459.756
123,2812.6,0.618174,2754.22,1.53304,,461.402
124,2835.46,0.623198,2776.6,1.56743,,462.948
125,2858.32,0.628222,2798.99,1.60265,,464.479
126,2881.18,0.633246,2821.37,1.63871,,466.077
127,2904.04,0.63827,2843.75,1.67562,,467.84
128,2926.89,0.643294,2866.14,1.7134,,469.878
129,2949.75,0.648319,2888.52,1.75206,,472.302
130,2972.61,0.653343,2910.91,1.79162,,475.194
131,2995.47,0.658367,2933.29,1.83208,,478.56
132,3018.33,0.663391,2955.67,1.87346,,482.288
133,3041.19,0.668415,2978.06,1.91577,,486.147
134,3064.05,0.673439,3000.44,1.95902,,489.853
135,3086.9,0.678463,3022.83,2.00324,,493.166
136,3109.76,0.683487,3045.21,2.04842,,495.957
137,3132.62,0.688511,3067.59,2.09457,,498.212
138,3155.48,0.693535,3089.98,2.14172,,499.993
139,3178.34,0.698559,3112.36,2.18988,,501.391
140,3201.2,0.703583,3134.75,2.23904,,502.498
141,3224.06,0.708607,3157.13,2.28924,,503.392
142,3246.91,0.713631,3179.51,2.34047,,504.13
143,3269.77,0.718655,3201.9,2.39274,,504.756
144,3292.63,0.723679,3224.28,2.44608,,505.301
145,3315.49,0.728703,3246.67,2.50048,,505.786
146,3338.35,0.733727,3269.05,2.55597,,506.227
147,3361.21,0.738751,3291.44,2.61255,,506.634
148,3384.07,0.743775,3313.82,2.67024,,507.014
149,3406.92,0.748799,3336.2,2.72904,,507.375
150,3429.78,0.753823,3358.59,2.78897,,507.719
151,3452.64,0.758847,3380.97,2.85004,,508.051
152,3475.5,0.763871,3403.36,2.91227,,508.373
153,3498.36,0.768895,3425.74,2.97566,,508.687
154,3521.22,0.773919,3448.12,3.04023,,508.995
155,3544.08,0.778943,3470.51,3.10598,,509.299
156,3566.93,0.783967,3492.89,3.17295,,509.6
157,3589.79,0.788991,3515.28,3.24113,,509.898
158,3612.65,0.794015,3537.66,3.31055,,510.196
159,3635.51,0.799039,3560.04,510.493,3.38121,
160,3658.37,0.804063,3582.43,510.79,3.45314,
161,3681.23,0.809087,3604.81,511.088,3.52634,
162,3704.09,0.814111,3627.2,511.387,3.60083,
163,3726.94,0.819135,3649.58,511.688,3.67663,
164,3749.8,0.824159,3671.96,511.991,3.75375,
165,3772.66,0.829183,3694.35,512.296,3.8322,
166,3795.52,0.834207,3716.73,512.604,3.91201,
167,3818.38,0.839231,3739.12,512.913,3.99318,
168,3841.24,0.844255,3761.5,513.225,4.07574,
169,3864.09,0.849279,3783.88,513.539,4.15969,
170,3886.95,0.854303,3806.27,513.855,4.24505,
171,3909.81,0.859327,3828.65,514.173,4.33184,
172,3932.67,0.864351,3851.04,514.492,4.42006,
173,3955.53,0.869375,3873.42,514.813,4.50974,
174,3978.39,0.874399,3895.8,515.135,4.60087,
175,4001.25,0.879423,3918.19,515.457,4.69347,
176,4024.1,0.884448,3940.57,515.78,4.78756,
177,4046.96,0.889472,3962.96,516.102,4.88313,
178,4069.82,0.894496,3985.34,516.425,4.9802,
179,4092.68,0.89952,4007.72,516.747,5.07877,
180,4115.54,0.904544,4030.11,517.067,5.17884,
181,4138.4,0.909568,4052.49,517.387,5.28043,
182,4161.26,0.914592,4074.88,517.706,5.38352,
183,4184.11,0.919616,4097.26,518.022,5.48813,
184,4206.97,0.92464,4119.65,518.337,5.59423,
185,4229.83,0.929664,4142.03,518.649,5.70185,
186,4252.69,0.934688,4164.41,518.959,5.81096,
187,4275.55,0.939712,4186.8,519.267,5.92156,
188,4298.41,0.944736,4209.18,519.572,6.03364,
189,4321.27,0.94976,4231.57,519.874,6.14719,
190,4344.12,0.954784,4253.95,520.173,6.2622,
191,4366.98,0.959808,4276.33,520.469,6.37867,
192,4389.84,0.964832,4298.72,520.762,6.49657,
193,4412.7,0.969856,4321.1,521.052,6.61589,
194,4435.56,0.97488,4343.49,521.338,6.73662,
195,4458.42,0.979904,4365.87,521.621,6.85874,
196,4481.28,0.984928,4388.25,521.901,6.98225,
197,4504.13,0.989952,4410.64,522.177,7.10713,
198,4526.99,0.994976,4433.02,522.45,7.23337,
199,4549.85,1.0,4455.41,522.719,7.36097,