File: 002_Mazur_ACSApplMaterInterfaces_2024/isotherms/reference/isotherm_TIP4P_NU-1000_298_N1200.csv
,pressure_Pa,fugacity_Pa,p/p0,uptake,metastable_gas,metastable_liq
0,1.0,0.979242,0.000219787,0.000198878,,
1,23.8585,23.3633,0.00524381,0.0047537,,
2,46.7171,45.7473,0.0102678,0.00932555,,
3,69.5756,68.1314,0.0152919,0.0139148,,
4,92.4342,90.5155,0.0203159,0.0185218,,
5,115.293,112.9,0.0253399,0.023147,,
6,138.151,135.284,0.0303639,0.0277907,,
7,161.01,157.668,0.0353879,0.0324533,,
8,183.868,180.052,0.040412,0.0371354,,
9,206.727,202.436,0.045436,0.0418372,,
10,229.585,224.82,0.05046,0.0465592,,
11,252.444,247.204,0.055484,0.051302,,
12,275.303,269.588,0.060508,0.0560659,,
13,298.161,291.972,0.0655321,0.0608515,,
14,321.02,314.356,0.0705561,0.0656592,,
15,343.878,336.74,0.0755801,0.0704895,,
16,366.737,359.124,0.0806041,0.0753431,,
17,389.595,381.508,0.0856281,0.0802204,,
18,412.454,403.892,0.0906522,0.0851219,,
19,435.312,426.276,0.0956762,0.0900483,,
20,458.171,448.66,0.1007,0.0950002,,
21,481.03,471.044,0.105724,0.0999782,,
22,503.888,493.428,0.110748,0.104983,,
23,526.747,515.812,0.115772,0.110015,,
24,549.605,538.197,0.120796,0.115075,,
25,572.464,560.581,0.12582,0.120164,,
26,595.322,582.965,0.130844,0.125282,,
27,618.181,605.349,0.135868,0.13043,,
28,641.039,627.733,0.140892,0.135609,,
29,663.898,650.117,0.145916,0.14082,,
30,686.756,672.501,0.15094,0.146064,,
31,709.615,694.885,0.155964,0.151341,,
32,732.474,717.269,0.160988,0.156652,,
33,755.332,739.653,0.166012,0.161998,,
34,778.191,762.037,0.171037,0.167381,,
35,801.049,784.421,0.176061,0.1728,,
36,823.908,806.805,0.181085,0.178257,,
37,846.766,829.189,0.186109,0.183754,,
38,869.625,851.573,0.191133,0.189291,,
39,892.483,873.957,0.196157,0.194869,,
40,915.342,896.341,0.201181,0.200489,,
41,938.201,918.725,0.206205,0.206153,,
42,961.059,941.109,0.211229,0.211862,,
43,983.918,963.494,0.216253,0.217617,,
44,1006.78,985.878,0.221277,0.22342,,
45,1029.63,1008.26,0.226301,0.229272,,
46,1052.49,1030.65,0.231325,0.235174,,
47,1075.35,1053.03,0.236349,0.241128,,
48,1098.21,1075.41,0.241373,0.247136,,
49,1121.07,1097.8,0.246397,0.253199,,
50,1143.93,1120.18,0.251421,0.259318,,
51,1166.79,1142.57,0.256445,0.265497,,
52,1189.64,1164.95,0.261469,0.271735,,
53,1212.5,1187.33,0.266493,0.278037,,
54,1235.36,1209.72,0.271517,0.284403,,
55,1258.22,1232.1,0.276541,0.290835,,
56,1281.08,1254.49,0.281565,0.297337,,
57,1303.94,1276.87,0.286589,0.30391,,
58,1326.8,1299.25,0.291613,0.310556,,
59,1349.65,1321.64,0.296637,0.317279,,
60,1372.51,1344.02,0.301661,0.32408,,
61,1395.37,1366.41,0.306685,0.330963,,
62,1418.23,1388.79,0.311709,0.33793,,
63,1441.09,1411.17,0.316733,0.344985,,
64,1463.95,1433.56,0.321757,0.352131,,
65,1486.81,1455.94,0.326781,0.35937,,
66,1509.66,1478.33,0.331805,0.366707,,
67,1532.52,1500.71,0.336829,0.374145,,
68,1555.38,1523.09,0.341853,0.381688,,
69,1578.24,1545.48,0.346877,0.38934,,
70,1601.1,1567.86,0.351901,0.397105,,
71,1623.96,1590.25,0.356925,0.404987,,
72,1646.82,1612.63,0.361949,0.412991,,
73,1669.67,1635.02,0.366973,0.421122,,
74,1692.53,1657.4,0.371997,0.429385,,
75,1715.39,1679.78,0.377021,0.437785,,
76,1738.25,1702.17,0.382045,0.446328,,
77,1761.11,1724.55,0.387069,0.455019,,
78,1783.97,1746.94,0.392093,0.463864,,
79,1806.83,1769.32,0.397117,0.47287,,
80,1829.68,1791.7,0.402141,0.482043,,
81,1852.54,1814.09,0.407166,0.491391,,
82,1875.4,1836.47,0.41219,0.50092,,
83,1898.26,1858.86,0.417214,0.510639,,
84,1921.12,1881.24,0.422238,0.520554,,
85,1943.98,1903.62,0.427262,0.530676,,
86,1966.84,1926.01,0.432286,0.541011,,
87,1989.69,1948.39,0.43731,0.55157,,
88,2012.55,1970.78,0.442334,0.562362,,
89,2035.41,1993.16,0.447358,0.573398,,
90,2058.27,2015.54,0.452382,0.584686,,
91,2081.13,2037.93,0.457406,0.59624,,
92,2103.99,2060.31,0.46243,0.608069,,
93,2126.85,2082.7,0.467454,0.620186,,
94,2149.7,2105.08,0.472478,0.632604,,
95,2172.56,2127.46,0.477502,0.645336,,
96,2195.42,2149.85,0.482526,0.658394,,379.05
97,2218.28,2172.23,0.48755,0.671795,,381.512
98,2241.14,2194.62,0.492574,0.685552,,383.72
99,2264,2217,0.497598,0.699681,,385.71
100,2286.85,2239.38,0.502622,0.714198,,387.649
101,2309.71,2261.77,0.507646,0.72912,,389.515
102,2332.57,2284.15,0.51267,0.744466,,391.369
103,2355.43,2306.54,0.517694,0.760252,,393.272
104,2378.29,2328.92,0.522718,0.776499,,395.284
105,2401.15,2351.3,0.527742,0.793226,,397.46
106,2424.01,2373.69,0.532766,0.810454,,399.841
107,2446.86,2396.07,0.53779,0.828204,,402.439
108,2469.72,2418.46,0.542814,0.846499,,405.237
109,2492.58,2440.84,0.547838,0.865362,,408.219
110,2515.44,2463.23,0.552862,0.884816,,411.484
111,2538.3,2485.61,0.557886,0.904888,,415.597
112,2561.16,2507.99,0.56291,0.925602,,422.414
113,2584.02,2530.38,0.567934,0.946985,,435.778
114,2606.87,2552.76,0.572958,0.969065,,456.806
115,2629.73,2575.15,0.577982,0.991871,,476.121
116,2652.59,2597.53,0.583006,1.01543,,486.684
117,2675.45,2619.91,0.58803,1.03978,,491.225
118,2698.31,2642.3,0.593054,1.06494,,493.268
119,2721.17,2664.68,0.598078,1.09095,,494.415
120,2744.03,2687.07,0.603102,1.11784,,495.235
121,2766.88,2709.45,0.608126,1.14565,,495.922
122,2789.74,2731.83,0.61315,1.1744,,496.547
123,2812.6,2754.22,0.618174,1.20414,,497.134
124,2835.46,2776.6,0.623198,1.23491,,497.696
125,2858.32,2798.99,0.628222,1.26673,,498.239
126,2881.18,2821.37,0.633246,1.29964,,498.765
127,2904.04,2843.75,0.63827,1.33369,,499.277
128,2926.89,2866.14,0.643294,1.36891,,499.777
129,2949.75,2888.52,0.648319,1.40534,,500.265
130,2972.61,2910.91,0.653343,1.44302,,500.744
131,2995.47,2933.29,0.658367,1.48199,,501.213
132,3018.33,2955.67,0.663391,1.52228,,501.674
133,3041.19,2978.06,0.668415,1.56395,,502.127
134,3064.05,3000.44,0.673439,1.60702,,502.572
135,3086.9,3022.83,0.678463,1.65153,,503.01
136,3109.76,3045.21,0.683487,1.69753,,503.441
137,3132.62,3067.59,0.688511,1.74505,,503.865
138,3155.48,3089.98,0.693535,1.79413,,504.283
139,3178.34,3112.36,0.698559,1.84479,,504.695
140,3201.2,3134.75,0.703583,1.89709,,505.1
141,3224.06,3157.13,0.708607,1.95105,,505.5
142,3246.91,3179.51,0.713631,2.0067,,505.894
143,3269.77,3201.9,0.718655,2.06407,,506.282
144,3292.63,3224.28,0.723679,2.12318,,506.665
145,3315.49,3246.67,0.728703,2.18407,,507.042
146,3338.35,3269.05,0.733727,2.24676,,507.415
147,3361.21,3291.44,0.738751,2.31126,,507.782
148,3384.07,3313.82,0.743775,2.37759,,508.145
149,3406.92,3336.2,0.748799,2.44577,,508.504
150,3429.78,3358.59,0.753823,2.5158,,508.858
151,3452.64,3380.97,0.758847,2.58769,,509.209
152,3475.5,3403.36,0.763871,2.66144,,509.555
153,3498.36,3425.74,0.768895,2.73705,,509.899
154,3521.22,3448.12,0.773919,2.81452,,510.239
155,3544.08,3470.51,0.778943,2.89384,,510.576
156,3566.93,3492.89,0.783967,2.97499,,510.911
157,3589.79,3515.28,0.788991,511.244,3.05795,
158,3612.65,3537.66,0.794015,511.575,3.1427,
159,3635.51,3560.04,0.799039,511.903,3.22922,
160,3658.37,3582.43,0.804063,512.231,3.31747,
161,3681.23,3604.81,0.809087,512.557,3.40741,
162,3704.09,3627.2,0.814111,512.882,3.49902,
163,3726.94,3649.58,0.819135,513.205,3.59223,
164,3749.8,3671.96,0.824159,513.529,3.68702,
165,3772.66,3694.35,0.829183,513.851,3.78332,
166,3795.52,3716.73,0.834207,514.172,3.88108,
167,3818.38,3739.12,0.839231,514.493,3.98024,
168,3841.24,3761.5,0.844255,514.813,4.08076,
169,3864.09,3783.88,0.849279,515.133,4.18255,
170,3886.95,3806.27,0.854303,515.451,4.28557,
171,3909.81,3828.65,0.859327,515.769,4.38974,
172,3932.67,3851.04,0.864351,516.085,4.495,
173,3955.53,3873.42,0.869375,516.4,4.60129,
174,3978.39,3895.8,0.874399,516.714,4.70853,
175,4001.25,3918.19,0.879423,517.025,4.81667,
176,4024.1,3940.57,0.884448,517.335,4.92563,
177,4046.96,3962.96,0.889472,517.643,5.03535,
178,4069.82,3985.34,0.894496,517.948,5.14577,
179,4092.68,4007.72,0.89952,518.251,5.25683,
180,4115.54,4030.11,0.904544,518.551,5.36848,
181,4138.4,4052.49,0.909568,518.847,5.48065,
182,4161.26,4074.88,0.914592,519.141,5.5933,
183,4184.11,4097.26,0.919616,519.431,5.70639,
184,4206.97,4119.65,0.92464,519.717,5.81986,
185,4229.83,4142.03,0.929664,519.999,5.93368,
186,4252.69,4164.41,0.934688,520.278,6.04782,
187,4275.55,4186.8,0.939712,520.553,6.16224,
188,4298.41,4209.18,0.944736,520.823,6.27694,
189,4321.27,4231.57,0.94976,521.09,6.39189,
190,4344.12,4253.95,0.954784,521.352,6.50707,
191,4366.98,4276.33,0.959808,521.61,6.62249,
192,4389.84,4298.72,0.964832,521.864,6.73815,
193,4412.7,4321.1,0.969856,522.114,6.85405,
194,4435.56,4343.49,0.97488,522.36,6.9702,
195,4458.42,4365.87,0.979904,522.603,7.08664,
196,4481.28,4388.25,0.984928,522.841,7.20339,
197,4504.13,4410.64,0.989952,523.076,7.32047,
198,4526.99,4433.02,0.994976,523.307,7.43795,
199,4549.85,4455.41,1.0,523.534,7.55586,