File: 002_Mazur_ACSApplMaterInterfaces_2024/isotherms/reference/isotherm_TIP4P_MOF-LA2_298_WLTMMC.csv
,pressure,p/p0,fugacity,uptake,metastable_gas,metastable_liq
0,1.0,0.000219787,0.979242,1.33162,,
1,23.8585,0.00524381,23.3633,3.80609,,
2,46.7171,0.0102678,45.7473,4.03558,,
3,69.5756,0.0152919,68.1314,4.17436,,
4,92.4342,0.0203159,90.5155,4.28903,,
5,115.293,0.0253399,112.9,4.39349,,
6,138.151,0.0303639,135.284,4.49228,,
7,161.01,0.0353879,157.668,4.58742,,
8,183.868,0.040412,180.052,4.68,,
9,206.727,0.045436,202.436,4.77051,,
10,229.585,0.05046,224.82,4.85911,,
11,252.444,0.055484,247.204,4.94581,,
12,275.303,0.060508,269.588,5.03063,,
13,298.161,0.0655321,291.972,5.11373,,
14,321.02,0.0705561,314.356,5.19535,,
15,343.878,0.0755801,336.74,5.27582,,
16,366.737,0.0806041,359.124,5.35543,,
17,389.595,0.0856281,381.508,5.43442,,
18,412.454,0.0906522,403.892,5.5129,,
19,435.312,0.0956762,426.276,5.59087,,
20,458.171,0.1007,448.66,5.66824,,
21,481.03,0.105724,471.044,5.74487,,
22,503.888,0.110748,493.428,5.82063,,
23,526.747,0.115772,515.812,5.89542,,
24,549.605,0.120796,538.197,5.96921,,
25,572.464,0.12582,560.581,6.04202,,
26,595.322,0.130844,582.965,6.11395,,
27,618.181,0.135868,605.349,6.18512,,
28,641.039,0.140892,627.733,6.25568,,
29,663.898,0.145916,650.117,6.32579,,
30,686.756,0.15094,672.501,6.3956,,
31,709.615,0.155964,694.885,6.46525,,
32,732.474,0.160988,717.269,6.53485,,
33,755.332,0.166012,739.653,6.60452,,
34,778.191,0.171037,762.037,6.67433,,
35,801.049,0.176061,784.421,6.74438,,
36,823.908,0.181085,806.805,6.81475,,
37,846.766,0.186109,829.189,6.88552,,
38,869.625,0.191133,851.573,6.95681,,
39,892.483,0.196157,873.957,7.02878,,
40,915.342,0.201181,896.341,7.10165,,
41,938.201,0.206205,918.725,7.1758,,
42,961.059,0.211229,941.109,7.25179,,
43,983.918,0.216253,963.494,7.33061,,
44,1006.78,0.221277,985.878,7.41408,,
45,1029.63,0.226301,1008.26,7.5058,,
46,1052.49,0.231325,1030.65,7.61382,,
47,1075.35,0.236349,1053.03,7.75829,,50.776
48,1098.21,0.241373,1075.41,7.99551,,52.4006
49,1121.07,0.246397,1097.8,8.49172,,53.5373
50,1143.93,0.251421,1120.18,9.69208,,54.2323
51,1166.79,0.256445,1142.57,54.7061,12.5994,
52,1189.64,0.261469,1164.95,55.1038,14.5523,
53,1212.5,0.266493,1187.33,55.4726,,
54,1235.36,0.271517,1209.72,55.8252,,
55,1258.22,0.276541,1232.1,56.161,,
56,1281.08,0.281565,1254.49,56.4758,,
57,1303.94,0.286589,1276.87,56.7662,,
58,1326.8,0.291613,1299.25,57.0316,,
59,1349.65,0.296637,1321.64,57.2731,,
60,1372.51,0.301661,1344.02,57.4937,,
61,1395.37,0.306685,1366.41,57.6968,,
62,1418.23,0.311709,1388.79,57.886,,
63,1441.09,0.316733,1411.17,58.0645,,
64,1463.95,0.321757,1433.56,58.2351,,
65,1486.81,0.326781,1455.94,58.4001,,
66,1509.66,0.331805,1478.33,58.5613,,
67,1532.52,0.336829,1500.71,58.7201,,
68,1555.38,0.341853,1523.09,58.8774,,
69,1578.24,0.346877,1545.48,59.0338,,
70,1601.1,0.351901,1567.86,59.1894,,
71,1623.96,0.356925,1590.25,59.344,,
72,1646.82,0.361949,1612.63,59.497,,
73,1669.67,0.366973,1635.02,59.6477,,
74,1692.53,0.371997,1657.4,59.7954,,
75,1715.39,0.377021,1679.78,59.9392,,
76,1738.25,0.382045,1702.17,60.0783,,
77,1761.11,0.387069,1724.55,60.2122,,
78,1783.97,0.392093,1746.94,60.3405,,
79,1806.83,0.397117,1769.32,60.463,,
80,1829.68,0.402141,1791.7,60.5796,,
81,1852.54,0.407166,1814.09,60.6906,,
82,1875.4,0.41219,1836.47,60.7962,,
83,1898.26,0.417214,1858.86,60.8969,,
84,1921.12,0.422238,1881.24,60.9931,,
85,1943.98,0.427262,1903.62,61.0854,,
86,1966.84,0.432286,1926.01,61.1744,,
87,1989.69,0.43731,1948.39,61.2608,,
88,2012.55,0.442334,1970.78,61.3453,,
89,2035.41,0.447358,1993.16,61.4286,,
90,2058.27,0.452382,2015.54,61.5114,,
91,2081.13,0.457406,2037.93,61.5946,,
92,2103.99,0.46243,2060.31,61.6789,,
93,2126.85,0.467454,2082.7,61.7652,,
94,2149.7,0.472478,2105.08,61.8542,,
95,2172.56,0.477502,2127.46,61.9465,,
96,2195.42,0.482526,2149.85,62.0429,,
97,2218.28,0.48755,2172.23,62.1436,,
98,2241.14,0.492574,2194.62,62.249,,
99,2264,0.497598,2217,62.3591,,
100,2286.85,0.502622,2239.38,62.4734,,
101,2309.71,0.507646,2261.77,62.5913,,
102,2332.57,0.51267,2284.15,62.7119,,
103,2355.43,0.517694,2306.54,62.834,,
104,2378.29,0.522718,2328.92,62.9562,,
105,2401.15,0.527742,2351.3,63.0772,,
106,2424.01,0.532766,2373.69,63.1956,,
107,2446.86,0.53779,2396.07,63.3103,,
108,2469.72,0.542814,2418.46,63.4202,,
109,2492.58,0.547838,2440.84,63.5246,,
110,2515.44,0.552862,2463.23,63.6232,,
111,2538.3,0.557886,2485.61,63.7158,,
112,2561.16,0.56291,2507.99,63.8024,,
113,2584.02,0.567934,2530.38,63.8833,,
114,2606.87,0.572958,2552.76,63.9589,,
115,2629.73,0.577982,2575.15,64.0295,,
116,2652.59,0.583006,2597.53,64.0958,,
117,2675.45,0.58803,2619.91,64.1583,,
118,2698.31,0.593054,2642.3,64.2175,,
119,2721.17,0.598078,2664.68,64.2738,,
120,2744.03,0.603102,2687.07,64.3279,,
121,2766.88,0.608126,2709.45,64.3802,,
122,2789.74,0.61315,2731.83,64.4311,,
123,2812.6,0.618174,2754.22,64.481,,
124,2835.46,0.623198,2776.6,64.5303,,
125,2858.32,0.628222,2798.99,64.5793,,
126,2881.18,0.633246,2821.37,64.6285,,
127,2904.04,0.63827,2843.75,64.6779,,
128,2926.89,0.643294,2866.14,64.7281,,
129,2949.75,0.648319,2888.52,64.7791,,
130,2972.61,0.653343,2910.91,64.8313,,
131,2995.47,0.658367,2933.29,64.8848,,
132,3018.33,0.663391,2955.67,64.94,,
133,3041.19,0.668415,2978.06,64.9968,,
134,3064.05,0.673439,3000.44,65.0555,,
135,3086.9,0.678463,3022.83,65.1161,,
136,3109.76,0.683487,3045.21,65.1787,,
137,3132.62,0.688511,3067.59,65.2432,,
138,3155.48,0.693535,3089.98,65.3098,,
139,3178.34,0.698559,3112.36,65.3781,,
140,3201.2,0.703583,3134.75,65.4482,,
141,3224.06,0.708607,3157.13,65.5197,,
142,3246.91,0.713631,3179.51,65.5925,,
143,3269.77,0.718655,3201.9,65.6662,,
144,3292.63,0.723679,3224.28,65.7406,,
145,3315.49,0.728703,3246.67,65.8152,,
146,3338.35,0.733727,3269.05,65.8897,,
147,3361.21,0.738751,3291.44,65.9637,,
148,3384.07,0.743775,3313.82,66.037,,
149,3406.92,0.748799,3336.2,66.1092,,
150,3429.78,0.753823,3358.59,66.18,,
151,3452.64,0.758847,3380.97,66.2491,,
152,3475.5,0.763871,3403.36,66.3164,,
153,3498.36,0.768895,3425.74,66.3816,,
154,3521.22,0.773919,3448.12,66.4448,,
155,3544.08,0.778943,3470.51,66.5058,,
156,3566.93,0.783967,3492.89,66.5647,,
157,3589.79,0.788991,3515.28,66.6213,,
158,3612.65,0.794015,3537.66,66.6759,,
159,3635.51,0.799039,3560.04,66.7284,,
160,3658.37,0.804063,3582.43,66.779,,
161,3681.23,0.809087,3604.81,66.8278,,
162,3704.09,0.814111,3627.2,66.875,,
163,3726.94,0.819135,3649.58,66.9207,,
164,3749.8,0.824159,3671.96,66.965,,
165,3772.66,0.829183,3694.35,67.0081,,
166,3795.52,0.834207,3716.73,67.0502,,
167,3818.38,0.839231,3739.12,67.0915,,
168,3841.24,0.844255,3761.5,67.132,,
169,3864.09,0.849279,3783.88,67.172,,
170,3886.95,0.854303,3806.27,67.2117,,
171,3909.81,0.859327,3828.65,67.251,,
172,3932.67,0.864351,3851.04,67.2903,,
173,3955.53,0.869375,3873.42,67.3296,,
174,3978.39,0.874399,3895.8,67.369,,
175,4001.25,0.879423,3918.19,67.4088,,
176,4024.1,0.884448,3940.57,67.4489,,
177,4046.96,0.889472,3962.96,67.4895,,
178,4069.82,0.894496,3985.34,67.5306,,
179,4092.68,0.89952,4007.72,67.5724,,
180,4115.54,0.904544,4030.11,67.615,,
181,4138.4,0.909568,4052.49,67.6582,,
182,4161.26,0.914592,4074.88,67.7023,,
183,4184.11,0.919616,4097.26,67.7472,,
184,4206.97,0.92464,4119.65,67.793,,
185,4229.83,0.929664,4142.03,67.8395,,
186,4252.69,0.934688,4164.41,67.8869,,
187,4275.55,0.939712,4186.8,67.935,,
188,4298.41,0.944736,4209.18,67.9838,,
189,4321.27,0.94976,4231.57,68.0332,,
190,4344.12,0.954784,4253.95,68.0831,,
191,4366.98,0.959808,4276.33,68.1334,,
192,4389.84,0.964832,4298.72,68.184,,
193,4412.7,0.969856,4321.1,68.2348,,
194,4435.56,0.97488,4343.49,68.2856,,
195,4458.42,0.979904,4365.87,68.3362,,
196,4481.28,0.984928,4388.25,68.3867,,
197,4504.13,0.989952,4410.64,68.4368,,
198,4526.99,0.994976,4433.02,68.4863,,
199,4549.85,1.0,4455.41,68.5352,,