File: 002_Mazur_ACSApplMaterInterfaces_2024/isotherms/reference/isotherm_TIP4P_MOF-303_298_N745.csv
,pressure_Pa,fugacity_Pa,p/p0,uptake
0,1.0,0.979242,0.000219787,4.01402
1,23.8585,23.3633,0.00524381,4.3761
2,46.7171,45.7473,0.0102678,4.74814
3,69.5756,68.1314,0.0152919,5.10118
4,92.4342,90.5155,0.0203159,5.45116
5,115.293,112.9,0.0253399,5.76601
6,138.151,135.284,0.0303639,6.04725
7,161.01,157.668,0.0353879,6.33059
8,183.868,180.052,0.040412,6.62532
9,206.727,202.436,0.045436,6.92171
10,229.585,224.82,0.05046,7.21648
11,252.444,247.204,0.055484,7.51386
12,275.303,269.588,0.060508,7.81687
13,298.161,291.972,0.0655321,8.13678
14,321.02,314.356,0.0705561,8.49999
15,343.878,336.74,0.0755801,8.93714
16,366.737,359.124,0.0806041,9.47817
17,389.595,381.508,0.0856281,10.1546
18,412.454,403.892,0.0906522,10.9878
19,435.312,426.276,0.0956762,12.0809
20,458.171,448.66,0.1007,13.6867
21,481.03,471.044,0.105724,15.9377
22,503.888,493.428,0.110748,18.787
23,526.747,515.812,0.115772,21.7394
24,549.605,538.197,0.120796,24.0557
25,572.464,560.581,0.12582,25.6954
26,595.322,582.965,0.130844,26.8501
27,618.181,605.349,0.135868,27.7003
28,641.039,627.733,0.140892,28.3769
29,663.898,650.117,0.145916,28.9334
30,686.756,672.501,0.15094,29.3874
31,709.615,694.885,0.155964,29.7545
32,732.474,717.269,0.160988,30.0543
33,755.332,739.653,0.166012,30.3058
34,778.191,762.037,0.171037,30.5239
35,801.049,784.421,0.176061,30.7186
36,823.908,806.805,0.181085,30.8961
37,846.766,829.189,0.186109,31.06
38,869.625,851.573,0.191133,31.2125
39,892.483,873.957,0.196157,31.3546
40,915.342,896.341,0.201181,31.4869
41,938.201,918.725,0.206205,31.61
42,961.059,941.109,0.211229,31.7245
43,983.918,963.494,0.216253,31.8311
44,1006.78,985.878,0.221277,31.9305
45,1029.63,1008.26,0.226301,32.0235
46,1052.49,1030.65,0.231325,32.1109
47,1075.35,1053.03,0.236349,32.1935
48,1098.21,1075.41,0.241373,32.2718
49,1121.07,1097.8,0.246397,32.3465
50,1143.93,1120.18,0.251421,32.4179
51,1166.79,1142.57,0.256445,32.4864
52,1189.64,1164.95,0.261469,32.5523
53,1212.5,1187.33,0.266493,32.6159
54,1235.36,1209.72,0.271517,32.6771
55,1258.22,1232.1,0.276541,32.7363
56,1281.08,1254.49,0.281565,32.7934
57,1303.94,1276.87,0.286589,32.8485
58,1326.8,1299.25,0.291613,32.9016
59,1349.65,1321.64,0.296637,32.9529
60,1372.51,1344.02,0.301661,33.0023
61,1395.37,1366.41,0.306685,33.0498
62,1418.23,1388.79,0.311709,33.0957
63,1441.09,1411.17,0.316733,33.1399
64,1463.95,1433.56,0.321757,33.1826
65,1486.81,1455.94,0.326781,33.2238
66,1509.66,1478.33,0.331805,33.2636
67,1532.52,1500.71,0.336829,33.3022
68,1555.38,1523.09,0.341853,33.3397
69,1578.24,1545.48,0.346877,33.3761
70,1601.1,1567.86,0.351901,33.4115
71,1623.96,1590.25,0.356925,33.4461
72,1646.82,1612.63,0.361949,33.4799
73,1669.67,1635.02,0.366973,33.513
74,1692.53,1657.4,0.371997,33.5455
75,1715.39,1679.78,0.377021,33.5775
76,1738.25,1702.17,0.382045,33.6089
77,1761.11,1724.55,0.387069,33.64
78,1783.97,1746.94,0.392093,33.6707
79,1806.83,1769.32,0.397117,33.701
80,1829.68,1791.7,0.402141,33.731
81,1852.54,1814.09,0.407166,33.7608
82,1875.4,1836.47,0.41219,33.7903
83,1898.26,1858.86,0.417214,33.8196
84,1921.12,1881.24,0.422238,33.8486
85,1943.98,1903.62,0.427262,33.8775
86,1966.84,1926.01,0.432286,33.9061
87,1989.69,1948.39,0.43731,33.9346
88,2012.55,1970.78,0.442334,33.9628
89,2035.41,1993.16,0.447358,33.9909
90,2058.27,2015.54,0.452382,34.0187
91,2081.13,2037.93,0.457406,34.0462
92,2103.99,2060.31,0.46243,34.0736
93,2126.85,2082.7,0.467454,34.1006
94,2149.7,2105.08,0.472478,34.1273
95,2172.56,2127.46,0.477502,34.1538
96,2195.42,2149.85,0.482526,34.1799
97,2218.28,2172.23,0.48755,34.2057
98,2241.14,2194.62,0.492574,34.2311
99,2264,2217,0.497598,34.2562
100,2286.85,2239.38,0.502622,34.2809
101,2309.71,2261.77,0.507646,34.3052
102,2332.57,2284.15,0.51267,34.3291
103,2355.43,2306.54,0.517694,34.3526
104,2378.29,2328.92,0.522718,34.3757
105,2401.15,2351.3,0.527742,34.3984
106,2424.01,2373.69,0.532766,34.4206
107,2446.86,2396.07,0.53779,34.4425
108,2469.72,2418.46,0.542814,34.464
109,2492.58,2440.84,0.547838,34.485
110,2515.44,2463.23,0.552862,34.5057
111,2538.3,2485.61,0.557886,34.526
112,2561.16,2507.99,0.56291,34.5459
113,2584.02,2530.38,0.567934,34.5655
114,2606.87,2552.76,0.572958,34.5847
115,2629.73,2575.15,0.577982,34.6036
116,2652.59,2597.53,0.583006,34.6221
117,2675.45,2619.91,0.58803,34.6404
118,2698.31,2642.3,0.593054,34.6583
119,2721.17,2664.68,0.598078,34.6759
120,2744.03,2687.07,0.603102,34.6933
121,2766.88,2709.45,0.608126,34.7104
122,2789.74,2731.83,0.61315,34.7272
123,2812.6,2754.22,0.618174,34.7438
124,2835.46,2776.6,0.623198,34.7602
125,2858.32,2798.99,0.628222,34.7763
126,2881.18,2821.37,0.633246,34.7923
127,2904.04,2843.75,0.63827,34.8081
128,2926.89,2866.14,0.643294,34.8237
129,2949.75,2888.52,0.648319,34.8391
130,2972.61,2910.91,0.653343,34.8543
131,2995.47,2933.29,0.658367,34.8694
132,3018.33,2955.67,0.663391,34.8844
133,3041.19,2978.06,0.668415,34.8992
134,3064.05,3000.44,0.673439,34.9139
135,3086.9,3022.83,0.678463,34.9285
136,3109.76,3045.21,0.683487,34.9429
137,3132.62,3067.59,0.688511,34.9572
138,3155.48,3089.98,0.693535,34.9715
139,3178.34,3112.36,0.698559,34.9856
140,3201.2,3134.75,0.703583,34.9996
141,3224.06,3157.13,0.708607,35.0136
142,3246.91,3179.51,0.713631,35.0274
143,3269.77,3201.9,0.718655,35.0412
144,3292.63,3224.28,0.723679,35.0549
145,3315.49,3246.67,0.728703,35.0685
146,3338.35,3269.05,0.733727,35.082
147,3361.21,3291.44,0.738751,35.0955
148,3384.07,3313.82,0.743775,35.1088
149,3406.92,3336.2,0.748799,35.1221
150,3429.78,3358.59,0.753823,35.1353
151,3452.64,3380.97,0.758847,35.1485
152,3475.5,3403.36,0.763871,35.1615
153,3498.36,3425.74,0.768895,35.1745
154,3521.22,3448.12,0.773919,35.1874
155,3544.08,3470.51,0.778943,35.2003
156,3566.93,3492.89,0.783967,35.213
157,3589.79,3515.28,0.788991,35.2257
158,3612.65,3537.66,0.794015,35.2383
159,3635.51,3560.04,0.799039,35.2509
160,3658.37,3582.43,0.804063,35.2633
161,3681.23,3604.81,0.809087,35.2757
162,3704.09,3627.2,0.814111,35.288
163,3726.94,3649.58,0.819135,35.3002
164,3749.8,3671.96,0.824159,35.3123
165,3772.66,3694.35,0.829183,35.3244
166,3795.52,3716.73,0.834207,35.3363
167,3818.38,3739.12,0.839231,35.3482
168,3841.24,3761.5,0.844255,35.36
169,3864.09,3783.88,0.849279,35.3717
170,3886.95,3806.27,0.854303,35.3834
171,3909.81,3828.65,0.859327,35.3949
172,3932.67,3851.04,0.864351,35.4064
173,3955.53,3873.42,0.869375,35.4178
174,3978.39,3895.8,0.874399,35.4291
175,4001.25,3918.19,0.879423,35.4403
176,4024.1,3940.57,0.884448,35.4514
177,4046.96,3962.96,0.889472,35.4625
178,4069.82,3985.34,0.894496,35.4734
179,4092.68,4007.72,0.89952,35.4843
180,4115.54,4030.11,0.904544,35.4951
181,4138.4,4052.49,0.909568,35.5059
182,4161.26,4074.88,0.914592,35.5165
183,4184.11,4097.26,0.919616,35.5271
184,4206.97,4119.65,0.92464,35.5376
185,4229.83,4142.03,0.929664,35.548
186,4252.69,4164.41,0.934688,35.5584
187,4275.55,4186.8,0.939712,35.5686
188,4298.41,4209.18,0.944736,35.5788
189,4321.27,4231.57,0.94976,35.589
190,4344.12,4253.95,0.954784,35.599
191,4366.98,4276.33,0.959808,35.609
192,4389.84,4298.72,0.964832,35.619
193,4412.7,4321.1,0.969856,35.6288
194,4435.56,4343.49,0.97488,35.6387
195,4458.42,4365.87,0.979904,35.6484
196,4481.28,4388.25,0.984928,35.6581
197,4504.13,4410.64,0.989952,35.6677
198,4526.99,4433.02,0.994976,35.6773
199,4549.85,4455.41,1.0,35.6868