File: 002_Mazur_ACSApplMaterInterfaces_2024/isotherms/reference/isotherm_TIP4P_MOF-LA2_343_N889_ref.csv
,pressure_Pa,fugacity_Pa,p/p0,uptake
0,1.0,0.964495,2.23106e-05,0.04186
1,226.23,218.198,0.00504732,3.18389
2,451.461,435.431,0.0100723,3.598
3,676.691,652.665,0.0150974,3.79082
4,901.921,869.898,0.0201224,3.93971
5,1127.15,1087.13,0.0251474,4.07435
6,1352.38,1304.36,0.0301724,4.20139
7,1577.61,1521.6,0.0351974,4.32351
8,1802.84,1738.83,0.0402224,4.44198
9,2028.07,1956.06,0.0452474,4.55722
10,2253.3,2173.3,0.0502724,4.6691
11,2478.53,2390.53,0.0552975,4.77729
12,2703.76,2607.77,0.0603225,4.8815
13,2928.99,2825,0.0653475,4.98161
14,3154.22,3042.23,0.0703725,5.07767
15,3379.45,3259.47,0.0753975,5.16986
16,3604.68,3476.7,0.0804225,5.25845
17,3829.91,3693.93,0.0854475,5.34375
18,4055.14,3911.17,0.0904726,5.42611
19,4280.37,4128.4,0.0954976,5.50585
20,4505.61,4345.63,0.100523,5.5833
21,4730.84,4562.87,0.105548,5.6588
22,4956.07,4780.1,0.110573,5.73265
23,5181.3,4997.33,0.115598,5.80517
24,5406.53,5214.57,0.120623,5.87665
25,5631.76,5431.8,0.125648,5.94737
26,5856.99,5649.03,0.130673,6.01756
27,6082.22,5866.27,0.135698,6.08744
28,6307.45,6083.5,0.140723,6.15717
29,6532.68,6300.73,0.145748,6.22687
30,6757.91,6517.97,0.150773,6.29661
31,6983.14,6735.2,0.155798,6.36643
32,7208.37,6952.43,0.160823,6.43633
33,7433.6,7169.67,0.165848,6.50631
34,7658.83,7386.9,0.170873,6.57633
35,7884.06,7604.13,0.175898,6.64641
36,8109.29,7821.37,0.180923,6.71653
37,8334.52,8038.6,0.185948,6.78676
38,8559.75,8255.83,0.190973,6.85717
39,8784.98,8473.07,0.195998,6.92793
40,9010.21,8690.3,0.201023,6.99926
41,9235.44,8907.53,0.206048,7.07147
42,9460.67,9124.77,0.211073,7.14498
43,9685.9,9342,0.216098,7.2203
44,9911.13,9559.23,0.221123,7.2981
45,10136.4,9776.47,0.226148,7.37913
46,10361.6,9993.7,0.231173,7.4643
47,10586.8,10210.9,0.236198,7.5546
48,10812.1,10428.2,0.241223,7.65105
49,11037.3,10645.4,0.246248,7.75466
50,11262.5,10862.6,0.251273,7.8663
51,11487.7,11079.9,0.256298,7.98663
52,11713,11297.1,0.261323,8.11592
53,11938.2,11514.3,0.266348,8.25413
54,12163.4,11731.6,0.271373,8.40091
55,12388.7,11948.8,0.276398,8.55594
56,12613.9,12166,0.281423,8.71946
57,12839.1,12383.3,0.286448,8.89346
58,13064.4,12600.5,0.291473,9.08374
59,13289.6,12817.7,0.296498,9.30454
60,13514.8,13035,0.301523,9.58883
61,13740,13252.2,0.306548,10.0122
62,13965.3,13469.4,0.311573,10.7435
63,14190.5,13686.7,0.316598,12.1186
64,14415.7,13903.9,0.321623,14.6202
65,14641,14121.1,0.326648,18.9072
66,14866.2,14338.4,0.331673,27.4885
67,15091.4,14555.6,0.336698,37.9551
68,15316.7,14772.8,0.341723,43.5981
69,15541.9,14990.1,0.346748,46.2861
70,15767.1,15207.3,0.351773,47.7057
71,15992.3,15424.5,0.356798,48.612
72,16217.6,15641.8,0.361823,49.2849
73,16442.8,15859,0.366848,49.8357
74,16668,16076.2,0.371873,50.3141
75,16893.3,16293.5,0.376898,50.7428
76,17118.5,16510.7,0.381923,51.1322
77,17343.7,16727.9,0.386948,51.4873
78,17569,16945.2,0.391973,51.8113
79,17794.2,17162.4,0.396998,52.1072
80,18019.4,17379.6,0.402023,52.378
81,18244.7,17596.9,0.407048,52.627
82,18469.9,17814.1,0.412073,52.8574
83,18695.1,18031.3,0.417098,53.0724
84,18920.3,18248.6,0.422123,53.2748
85,19145.6,18465.8,0.427148,53.4669
86,19370.8,18683,0.432173,53.651
87,19596,18900.3,0.437198,53.8286
88,19821.3,19117.5,0.442223,54.0014
89,20046.5,19334.7,0.447249,54.1704
90,20271.7,19552,0.452274,54.3365
91,20497,19769.2,0.457299,54.5002
92,20722.2,19986.4,0.462324,54.662
93,20947.4,20203.7,0.467349,54.8219
94,21172.6,20420.9,0.472374,54.9797
95,21397.9,20638.1,0.477399,55.1351
96,21623.1,20855.4,0.482424,55.2879
97,21848.3,21072.6,0.487449,55.4374
98,22073.6,21289.8,0.492474,55.5833
99,22298.8,21507.1,0.497499,55.725
100,22524,21724.3,0.502524,55.8622
101,22749.3,21941.5,0.507549,55.9947
102,22974.5,22158.8,0.512574,56.1221
103,23199.7,22376,0.517599,56.2446
104,23424.9,22593.2,0.522624,56.3621
105,23650.2,22810.5,0.527649,56.4747
106,23875.4,23027.7,0.532674,56.5827
107,24100.6,23244.9,0.537699,56.6862
108,24325.9,23462.2,0.542724,56.7857
109,24551.1,23679.4,0.547749,56.8813
110,24776.3,23896.6,0.552774,56.9734
111,25001.6,24113.9,0.557799,57.0624
112,25226.8,24331.1,0.562824,57.1486
113,25452,24548.3,0.567849,57.2321
114,25677.2,24765.6,0.572874,57.3135
115,25902.5,24982.8,0.577899,57.3928
116,26127.7,25200,0.582924,57.4704
117,26352.9,25417.3,0.587949,57.5464
118,26578.2,25634.5,0.592974,57.6212
119,26803.4,25851.7,0.597999,57.695
120,27028.6,26069,0.603024,57.7678
121,27253.9,26286.2,0.608049,57.84
122,27479.1,26503.4,0.613074,57.9117
123,27704.3,26720.7,0.618099,57.983
124,27929.6,26937.9,0.623124,58.0541
125,28154.8,27155.1,0.628149,58.1252
126,28380,27372.4,0.633174,58.1963
127,28605.2,27589.6,0.638199,58.2676
128,28830.5,27806.8,0.643224,58.3393
129,29055.7,28024.1,0.648249,58.4113
130,29280.9,28241.3,0.653274,58.4838
131,29506.2,28458.5,0.658299,58.5569
132,29731.4,28675.8,0.663324,58.6305
133,29956.6,28893,0.668349,58.7048
134,30181.9,29110.2,0.673374,58.7797
135,30407.1,29327.5,0.678399,58.8552
136,30632.3,29544.7,0.683424,58.9313
137,30857.5,29761.9,0.688449,59.008
138,31082.8,29979.2,0.693474,59.0853
139,31308,30196.4,0.698499,59.1629
140,31533.2,30413.6,0.703524,59.241
141,31758.5,30630.9,0.708549,59.3193
142,31983.7,30848.1,0.713574,59.3977
143,32208.9,31065.3,0.718599,59.4763
144,32434.2,31282.6,0.723624,59.5548
145,32659.4,31499.8,0.728649,59.6331
146,32884.6,31717,0.733674,59.7112
147,33109.8,31934.3,0.738699,59.7889
148,33335.1,32151.5,0.743724,59.8662
149,33560.3,32368.7,0.748749,59.9429
150,33785.5,32586,0.753774,60.0189
151,34010.8,32803.2,0.758799,60.0942
152,34236,33020.4,0.763824,60.1687
153,34461.2,33237.7,0.768849,60.2424
154,34686.5,33454.9,0.773874,60.3151
155,34911.7,33672.1,0.778899,60.3868
156,35136.9,33889.4,0.783924,60.4576
157,35362.1,34106.6,0.788949,60.5274
158,35587.4,34323.8,0.793974,60.596
159,35812.6,34541.1,0.798999,60.6637
160,36037.8,34758.3,0.804024,60.7302
161,36263.1,34975.5,0.809049,60.7956
162,36488.3,35192.8,0.814074,60.86
163,36713.5,35410,0.8191,60.9232
164,36938.8,35627.2,0.824125,60.9854
165,37164,35844.5,0.82915,61.0465
166,37389.2,36061.7,0.834175,61.1065
167,37614.5,36278.9,0.8392,61.1654
168,37839.7,36496.2,0.844225,61.2233
169,38064.9,36713.4,0.84925,61.2802
170,38290.1,36930.6,0.854275,61.336
171,38515.4,37147.9,0.8593,61.3909
172,38740.6,37365.1,0.864325,61.4449
173,38965.8,37582.3,0.86935,61.4979
174,39191.1,37799.6,0.874375,61.55
175,39416.3,38016.8,0.8794,61.6013
176,39641.5,38234,0.884425,61.6518
177,39866.8,38451.3,0.88945,61.7015
178,40092,38668.5,0.894475,61.7504
179,40317.2,38885.7,0.8995,61.7986
180,40542.4,39103,0.904525,61.8462
181,40767.7,39320.2,0.90955,61.8931
182,40992.9,39537.4,0.914575,61.9394
183,41218.1,39754.7,0.9196,61.9852
184,41443.4,39971.9,0.924625,62.0305
185,41668.6,40189.1,0.92965,62.0754
186,41893.8,40406.4,0.934675,62.1198
187,42119.1,40623.6,0.9397,62.1638
188,42344.3,40840.8,0.944725,62.2074
189,42569.5,41058.1,0.94975,62.2508
190,42794.7,41275.3,0.954775,62.2939
191,43020,41492.5,0.9598,62.3367
192,43245.2,41709.8,0.964825,62.3793
193,43470.4,41927,0.96985,62.4217
194,43695.7,42144.2,0.974875,62.4639
195,43920.9,42361.5,0.9799,62.506
196,44146.1,42578.7,0.984925,62.548
197,44371.4,42795.9,0.98995,62.5899
198,44596.6,43013.2,0.994975,62.6317
199,44821.8,43230.4,1.0,62.6734