File: 002_Mazur_ACSApplMaterInterfaces_2024/isotherms/extrapolated/isotherm_TIP4P_NU-1000_343_N24_extrapolated.csv
,pressure_Pa,fugacity_Pa,p/p0,uptake,metastable_gas,metastable_liq
0,1.0,0.964495,2.23106e-05,0.0053396,,
1,226.23,218.198,0.00504732,1.15837,,
2,451.461,435.431,0.0100723,2.22044,,
3,676.691,652.665,0.0150974,3.2019,,
4,901.921,869.898,0.0201224,4.11159,,
5,1127.15,1087.13,0.0251474,4.9571,,
6,1352.38,1304.36,0.0301724,5.74501,,
7,1577.61,1521.6,0.0351974,6.48099,,
8,1802.84,1738.83,0.0402224,7.17002,,
9,2028.07,1956.06,0.0452474,7.81646,,
10,2253.3,2173.3,0.0502724,8.42413,,
11,2478.53,2390.53,0.0552975,8.99642,,
12,2703.76,2607.77,0.0603225,9.53633,,
13,2928.99,2825,0.0653475,10.0465,,
14,3154.22,3042.23,0.0703725,10.5294,,
15,3379.45,3259.47,0.0753975,10.9871,,
16,3604.68,3476.7,0.0804225,11.4216,,
17,3829.91,3693.93,0.0854475,11.8345,,
18,4055.14,3911.17,0.0904726,12.2274,,
19,4280.37,4128.4,0.0954976,12.6018,,
20,4505.61,4345.63,0.100523,12.9589,,
21,4730.84,4562.87,0.105548,13.2999,,
22,4956.07,4780.1,0.110573,13.6259,,
23,5181.3,4997.33,0.115598,13.9378,,
24,5406.53,5214.57,0.120623,14.2365,,
25,5631.76,5431.8,0.125648,14.5229,,
26,5856.99,5649.03,0.130673,14.7976,,
27,6082.22,5866.27,0.135698,15.0615,,
28,6307.45,6083.5,0.140723,15.3151,,
29,6532.68,6300.73,0.145748,15.559,,
30,6757.91,6517.97,0.150773,15.7937,,
31,6983.14,6735.2,0.155798,16.0198,,
32,7208.37,6952.43,0.160823,16.2378,,
33,7433.6,7169.67,0.165848,16.448,,
34,7658.83,7386.9,0.170873,16.6508,,
35,7884.06,7604.13,0.175898,16.8467,,
36,8109.29,7821.37,0.180923,17.0361,,
37,8334.52,8038.6,0.185948,17.2191,,
38,8559.75,8255.83,0.190973,17.3962,,
39,8784.98,8473.07,0.195998,17.5676,,
40,9010.21,8690.3,0.201023,17.7336,,
41,9235.44,8907.53,0.206048,17.8944,,
42,9460.67,9124.77,0.211073,18.0503,,
43,9685.9,9342,0.216098,18.2015,,
44,9911.13,9559.23,0.221123,18.3482,,
45,10136.4,9776.47,0.226148,18.4906,,
46,10361.6,9993.7,0.231173,18.6289,,
47,10586.8,10210.9,0.236198,18.7633,,
48,10812.1,10428.2,0.241223,18.8939,,
49,11037.3,10645.4,0.246248,19.0209,,
50,11262.5,10862.6,0.251273,19.1445,,
51,11487.7,11079.9,0.256298,19.2647,,
52,11713,11297.1,0.261323,19.3817,,
53,11938.2,11514.3,0.266348,19.4957,,
54,12163.4,11731.6,0.271373,19.6067,,
55,12388.7,11948.8,0.276398,19.7149,,
56,12613.9,12166,0.281423,19.8203,,
57,12839.1,12383.3,0.286448,19.9232,,
58,13064.4,12600.5,0.291473,20.0235,,
59,13289.6,12817.7,0.296498,20.1213,,
60,13514.8,13035,0.301523,20.2169,,
61,13740,13252.2,0.306548,20.3101,,
62,13965.3,13469.4,0.311573,20.4012,,
63,14190.5,13686.7,0.316598,20.4901,,
64,14415.7,13903.9,0.321623,20.5771,,
65,14641,14121.1,0.326648,20.662,,
66,14866.2,14338.4,0.331673,20.7451,,
67,15091.4,14555.6,0.336698,20.8263,,
68,15316.7,14772.8,0.341723,20.9057,,
69,15541.9,14990.1,0.346748,20.9834,,
70,15767.1,15207.3,0.351773,21.0595,,
71,15992.3,15424.5,0.356798,21.1339,,
72,16217.6,15641.8,0.361823,21.2068,,
73,16442.8,15859,0.366848,21.2781,,
74,16668,16076.2,0.371873,21.348,,
75,16893.3,16293.5,0.376898,21.4165,,
76,17118.5,16510.7,0.381923,21.4836,,
77,17343.7,16727.9,0.386948,21.5494,,
78,17569,16945.2,0.391973,21.6138,,
79,17794.2,17162.4,0.396998,21.677,,
80,18019.4,17379.6,0.402023,21.739,,
81,18244.7,17596.9,0.407048,21.7998,,
82,18469.9,17814.1,0.412073,21.8594,,
83,18695.1,18031.3,0.417098,21.9179,,
84,18920.3,18248.6,0.422123,21.9754,,
85,19145.6,18465.8,0.427148,22.0317,,
86,19370.8,18683,0.432173,22.0871,,
87,19596,18900.3,0.437198,22.1414,,
88,19821.3,19117.5,0.442223,22.1948,,
89,20046.5,19334.7,0.447249,22.2472,,
90,20271.7,19552,0.452274,22.2987,,
91,20497,19769.2,0.457299,22.3493,,
92,20722.2,19986.4,0.462324,22.399,,
93,20947.4,20203.7,0.467349,22.4479,,
94,21172.6,20420.9,0.472374,22.4959,,
95,21397.9,20638.1,0.477399,22.5432,,
96,21623.1,20855.4,0.482424,22.5896,,
97,21848.3,21072.6,0.487449,22.6353,,
98,22073.6,21289.8,0.492474,22.6802,,
99,22298.8,21507.1,0.497499,22.7244,,
100,22524,21724.3,0.502524,22.7679,,
101,22749.3,21941.5,0.507549,22.8107,,
102,22974.5,22158.8,0.512574,22.8529,,
103,23199.7,22376,0.517599,22.8944,,
104,23424.9,22593.2,0.522624,22.9352,,
105,23650.2,22810.5,0.527649,22.9754,,
106,23875.4,23027.7,0.532674,23.015,,
107,24100.6,23244.9,0.537699,23.054,,
108,24325.9,23462.2,0.542724,23.0924,,
109,24551.1,23679.4,0.547749,23.1303,,
110,24776.3,23896.6,0.552774,23.1676,,
111,25001.6,24113.9,0.557799,23.2043,,
112,25226.8,24331.1,0.562824,23.2406,,
113,25452,24548.3,0.567849,23.2763,,
114,25677.2,24765.6,0.572874,23.3115,,
115,25902.5,24982.8,0.577899,23.3462,,
116,26127.7,25200,0.582924,23.3805,,
117,26352.9,25417.3,0.587949,23.4143,,368.982
118,26578.2,25634.5,0.592974,23.4476,,370.312
119,26803.4,25851.7,0.597999,23.4805,,372.036
120,27028.6,26069,0.603024,23.5129,,374.486
121,27253.9,26286.2,0.608049,23.5449,,378.06
122,27479.1,26503.4,0.613074,23.5765,,383.087
123,27704.3,26720.7,0.618099,23.6077,,389.445
124,27929.6,26937.9,0.623124,23.6385,,396.316
125,28154.8,27155.1,0.628149,23.669,,402.552
126,28380,27372.4,0.633174,23.699,,407.445
127,28605.2,27589.6,0.638199,23.7287,,411.008
128,28830.5,27806.8,0.643224,23.758,,413.737
129,29055.7,28024.1,0.648249,23.787,,416.352
130,29280.9,28241.3,0.653274,23.8156,,419.769
131,29506.2,28458.5,0.658299,23.8439,,425.092
132,29731.4,28675.8,0.663324,23.8719,,433.13
133,29956.6,28893,0.668349,23.8995,,443.223
134,30181.9,29110.2,0.673374,23.9268,,452.95
135,30407.1,29327.5,0.678399,23.9539,,460.167
136,30632.3,29544.7,0.683424,23.9806,,464.573
137,30857.5,29761.9,0.688449,24.0071,,466.981
138,31082.8,29979.2,0.693474,24.0333,,468.244
139,31308,30196.4,0.698499,24.0592,,468.915
140,31533.2,30413.6,0.703524,24.0848,,469.296
141,31758.5,30630.9,0.708549,24.1102,,469.536
142,31983.7,30848.1,0.713574,24.1353,,469.709
143,32208.9,31065.3,0.718599,24.1602,,469.851
144,32434.2,31282.6,0.723624,24.1848,,469.978
145,32659.4,31499.8,0.728649,24.2092,,470.101
146,32884.6,31717,0.733674,24.2334,,470.222
147,33109.8,31934.3,0.738699,24.2574,,470.346
148,33335.1,32151.5,0.743724,24.2811,,470.472
149,33560.3,32368.7,0.748749,24.3046,,470.602
150,33785.5,32586,0.753774,24.3279,,470.737
151,34010.8,32803.2,0.758799,24.3511,,470.878
152,34236,33020.4,0.763824,24.374,,471.025
153,34461.2,33237.7,0.768849,24.3968,,471.179
154,34686.5,33454.9,0.773874,24.4193,,471.34
155,34911.7,33672.1,0.778899,24.4417,,471.51
156,35136.9,33889.4,0.783924,24.4639,,471.69
157,35362.1,34106.6,0.788949,24.486,,471.879
158,35587.4,34323.8,0.793974,24.5079,,472.08
159,35812.6,34541.1,0.798999,24.5296,,472.293
160,36037.8,34758.3,0.804024,24.5512,,472.52
161,36263.1,34975.5,0.809049,24.5727,,472.76
162,36488.3,35192.8,0.814074,24.594,,473.017
163,36713.5,35410,0.8191,24.6151,,473.291
164,36938.8,35627.2,0.824125,24.6362,,473.582
165,37164,35844.5,0.82915,24.6571,,473.894
166,37389.2,36061.7,0.834175,24.6779,,474.227
167,37614.5,36278.9,0.8392,24.6986,,474.582
168,37839.7,36496.2,0.844225,24.7191,,474.96
169,38064.9,36713.4,0.84925,24.7396,,475.363
170,38290.1,36930.6,0.854275,24.76,,475.792
171,38515.4,37147.9,0.8593,24.7802,,476.248
172,38740.6,37365.1,0.864325,24.8004,,476.73
173,38965.8,37582.3,0.86935,24.8205,,477.239
174,39191.1,37799.6,0.874375,477.775,24.8405,
175,39416.3,38016.8,0.8794,478.337,24.8605,
176,39641.5,38234,0.884425,478.924,24.8803,
177,39866.8,38451.3,0.88945,479.533,24.9001,
178,40092,38668.5,0.894475,480.163,24.9198,
179,40317.2,38885.7,0.8995,480.811,24.9395,
180,40542.4,39103,0.904525,481.474,24.9591,
181,40767.7,39320.2,0.90955,482.147,24.9787,
182,40992.9,39537.4,0.914575,482.827,24.9982,
183,41218.1,39754.7,0.9196,483.51,25.0177,
184,41443.4,39971.9,0.924625,484.193,25.0371,
185,41668.6,40189.1,0.92965,484.871,25.0565,
186,41893.8,40406.4,0.934675,485.54,25.0759,
187,42119.1,40623.6,0.9397,486.199,25.0953,
188,42344.3,40840.8,0.944725,486.843,25.1147,
189,42569.5,41058.1,0.94975,487.472,25.134,
190,42794.7,41275.3,0.954775,488.082,25.1533,
191,43020,41492.5,0.9598,488.672,25.1727,
192,43245.2,41709.8,0.964825,489.243,25.192,
193,43470.4,41927,0.96985,489.793,25.2113,
194,43695.7,42144.2,0.974875,490.323,25.2307,
195,43920.9,42361.5,0.9799,490.832,25.2501,
196,44146.1,42578.7,0.984925,491.322,25.2695,
197,44371.4,42795.9,0.98995,491.793,25.2889,
198,44596.6,43013.2,0.994975,492.246,25.3084,
199,44821.8,43230.4,1.0,492.682,25.3279,