File: 002_Mazur_ACSApplMaterInterfaces_2024/isotherms/extrapolated/isotherm_TIP4P_MOF-303_343_N37_extrapolated.csv
,pressure_Pa,fugacity_Pa,p/p0,uptake
0,1.0,0.964495,2.23106e-05,3.42001
1,226.23,218.198,0.00504732,3.64525
2,451.461,435.431,0.0100723,3.83515
3,676.691,652.665,0.0150974,4.01774
4,901.921,869.898,0.0201224,4.27721
5,1127.15,1087.13,0.0251474,4.88148
6,1352.38,1304.36,0.0301724,5.24737
7,1577.61,1521.6,0.0351974,5.46816
8,1802.84,1738.83,0.0402224,5.66994
9,2028.07,1956.06,0.0452474,5.86389
10,2253.3,2173.3,0.0502724,6.05192
11,2478.53,2390.53,0.0552975,6.24076
12,2703.76,2607.77,0.0603225,6.44339
13,2928.99,2825,0.0653475,6.67131
14,3154.22,3042.23,0.0703725,6.91832
15,3379.45,3259.47,0.0753975,7.16026
16,3604.68,3476.7,0.0804225,7.38002
17,3829.91,3693.93,0.0854475,7.58037
18,4055.14,3911.17,0.0904726,7.77473
19,4280.37,4128.4,0.0954976,7.9777
20,4505.61,4345.63,0.100523,8.20223
21,4730.84,4562.87,0.105548,8.45982
22,4956.07,4780.1,0.110573,8.76084
23,5181.3,4997.33,0.115598,9.11365
24,5406.53,5214.57,0.120623,9.52467
25,5631.76,5431.8,0.125648,10.0064
26,5856.99,5649.03,0.130673,10.5794
27,6082.22,5866.27,0.135698,11.2195
28,6307.45,6083.5,0.140723,11.8277
29,6532.68,6300.73,0.145748,12.3665
30,6757.91,6517.97,0.150773,12.939
31,6983.14,6735.2,0.155798,13.6635
32,7208.37,6952.43,0.160823,14.5751
33,7433.6,7169.67,0.165848,15.9576
34,7658.83,7386.9,0.170873,17.8517
35,7884.06,7604.13,0.175898,19.0405
36,8109.29,7821.37,0.180923,19.6535
37,8334.52,8038.6,0.185948,20.3651
38,8559.75,8255.83,0.190973,21.4803
39,8784.98,8473.07,0.195998,22.5273
40,9010.21,8690.3,0.201023,23.2229
41,9235.44,8907.53,0.206048,23.8869
42,9460.67,9124.77,0.211073,24.666
43,9685.9,9342,0.216098,25.3602
44,9911.13,9559.23,0.221123,25.8296
45,10136.4,9776.47,0.226148,26.1476
46,10361.6,9993.7,0.231173,26.4236
47,10586.8,10210.9,0.236198,26.7264
48,10812.1,10428.2,0.241223,27.08
49,11037.3,10645.4,0.246248,27.4607
50,11262.5,10862.6,0.251273,27.8154
51,11487.7,11079.9,0.256298,28.1036
52,11713,11297.1,0.261323,28.3184
53,11938.2,11514.3,0.266348,28.4751
54,12163.4,11731.6,0.271373,28.5931
55,12388.7,11948.8,0.276398,28.6876
56,12613.9,12166,0.281423,28.7686
57,12839.1,12383.3,0.286448,28.842
58,13064.4,12600.5,0.291473,28.9115
59,13289.6,12817.7,0.296498,28.9789
60,13514.8,13035,0.301523,29.0452
61,13740,13252.2,0.306548,29.1108
62,13965.3,13469.4,0.311573,29.1755
63,14190.5,13686.7,0.316598,29.2393
64,14415.7,13903.9,0.321623,29.3018
65,14641,14121.1,0.326648,29.3626
66,14866.2,14338.4,0.331673,29.4217
67,15091.4,14555.6,0.336698,29.4787
68,15316.7,14772.8,0.341723,29.5339
69,15541.9,14990.1,0.346748,29.5873
70,15767.1,15207.3,0.351773,29.6394
71,15992.3,15424.5,0.356798,29.6909
72,16217.6,15641.8,0.361823,29.7424
73,16442.8,15859,0.366848,29.795
74,16668,16076.2,0.371873,29.8501
75,16893.3,16293.5,0.376898,29.9092
76,17118.5,16510.7,0.381923,29.9742
77,17343.7,16727.9,0.386948,30.0474
78,17569,16945.2,0.391973,30.1307
79,17794.2,17162.4,0.396998,30.2264
80,18019.4,17379.6,0.402023,30.3357
81,18244.7,17596.9,0.407048,30.4588
82,18469.9,17814.1,0.412073,30.5941
83,18695.1,18031.3,0.417098,30.7382
84,18920.3,18248.6,0.422123,30.8862
85,19145.6,18465.8,0.427148,31.0323
86,19370.8,18683,0.432173,31.1711
87,19596,18900.3,0.437198,31.2986
88,19821.3,19117.5,0.442223,31.4124
89,20046.5,19334.7,0.447249,31.5119
90,20271.7,19552,0.452274,31.5976
91,20497,19769.2,0.457299,31.671
92,20722.2,19986.4,0.462324,31.7338
93,20947.4,20203.7,0.467349,31.7877
94,21172.6,20420.9,0.472374,31.8345
95,21397.9,20638.1,0.477399,31.8756
96,21623.1,20855.4,0.482424,31.9121
97,21848.3,21072.6,0.487449,31.9449
98,22073.6,21289.8,0.492474,31.975
99,22298.8,21507.1,0.497499,32.0028
100,22524,21724.3,0.502524,32.0289
101,22749.3,21941.5,0.507549,32.0537
102,22974.5,22158.8,0.512574,32.0774
103,23199.7,22376,0.517599,32.1003
104,23424.9,22593.2,0.522624,32.1227
105,23650.2,22810.5,0.527649,32.1446
106,23875.4,23027.7,0.532674,32.1663
107,24100.6,23244.9,0.537699,32.1879
108,24325.9,23462.2,0.542724,32.2095
109,24551.1,23679.4,0.547749,32.2314
110,24776.3,23896.6,0.552774,32.2535
111,25001.6,24113.9,0.557799,32.276
112,25226.8,24331.1,0.562824,32.2992
113,25452,24548.3,0.567849,32.3231
114,25677.2,24765.6,0.572874,32.3478
115,25902.5,24982.8,0.577899,32.3737
116,26127.7,25200,0.582924,32.4007
117,26352.9,25417.3,0.587949,32.4292
118,26578.2,25634.5,0.592974,32.4593
119,26803.4,25851.7,0.597999,32.4912
120,27028.6,26069,0.603024,32.5251
121,27253.9,26286.2,0.608049,32.5612
122,27479.1,26503.4,0.613074,32.5997
123,27704.3,26720.7,0.618099,32.6406
124,27929.6,26937.9,0.623124,32.6842
125,28154.8,27155.1,0.628149,32.7305
126,28380,27372.4,0.633174,32.7793
127,28605.2,27589.6,0.638199,32.8307
128,28830.5,27806.8,0.643224,32.8845
129,29055.7,28024.1,0.648249,32.9403
130,29280.9,28241.3,0.653274,32.9979
131,29506.2,28458.5,0.658299,33.0568
132,29731.4,28675.8,0.663324,33.1164
133,29956.6,28893,0.668349,33.1764
134,30181.9,29110.2,0.673374,33.2361
135,30407.1,29327.5,0.678399,33.295
136,30632.3,29544.7,0.683424,33.3526
137,30857.5,29761.9,0.688449,33.4085
138,31082.8,29979.2,0.693474,33.4623
139,31308,30196.4,0.698499,33.5138
140,31533.2,30413.6,0.703524,33.5626
141,31758.5,30630.9,0.708549,33.6088
142,31983.7,30848.1,0.713574,33.6521
143,32208.9,31065.3,0.718599,33.6928
144,32434.2,31282.6,0.723624,33.7307
145,32659.4,31499.8,0.728649,33.766
146,32884.6,31717,0.733674,33.7989
147,33109.8,31934.3,0.738699,33.8294
148,33335.1,32151.5,0.743724,33.8577
149,33560.3,32368.7,0.748749,33.8841
150,33785.5,32586,0.753774,33.9086
151,34010.8,32803.2,0.758799,33.9315
152,34236,33020.4,0.763824,33.9528
153,34461.2,33237.7,0.768849,33.9727
154,34686.5,33454.9,0.773874,33.9914
155,34911.7,33672.1,0.778899,34.0089
156,35136.9,33889.4,0.783924,34.0254
157,35362.1,34106.6,0.788949,34.0409
158,35587.4,34323.8,0.793974,34.0556
159,35812.6,34541.1,0.798999,34.0696
160,36037.8,34758.3,0.804024,34.0829
161,36263.1,34975.5,0.809049,34.0955
162,36488.3,35192.8,0.814074,34.1075
163,36713.5,35410,0.8191,34.1191
164,36938.8,35627.2,0.824125,34.1301
165,37164,35844.5,0.82915,34.1408
166,37389.2,36061.7,0.834175,34.151
167,37614.5,36278.9,0.8392,34.1609
168,37839.7,36496.2,0.844225,34.1704
169,38064.9,36713.4,0.84925,34.1796
170,38290.1,36930.6,0.854275,34.1886
171,38515.4,37147.9,0.8593,34.1972
172,38740.6,37365.1,0.864325,34.2056
173,38965.8,37582.3,0.86935,34.2138
174,39191.1,37799.6,0.874375,34.2218
175,39416.3,38016.8,0.8794,34.2295
176,39641.5,38234,0.884425,34.2371
177,39866.8,38451.3,0.88945,34.2445
178,40092,38668.5,0.894475,34.2517
179,40317.2,38885.7,0.8995,34.2588
180,40542.4,39103,0.904525,34.2657
181,40767.7,39320.2,0.90955,34.2725
182,40992.9,39537.4,0.914575,34.2791
183,41218.1,39754.7,0.9196,34.2856
184,41443.4,39971.9,0.924625,34.292
185,41668.6,40189.1,0.92965,34.2983
186,41893.8,40406.4,0.934675,34.3045
187,42119.1,40623.6,0.9397,34.3105
188,42344.3,40840.8,0.944725,34.3165
189,42569.5,41058.1,0.94975,34.3224
190,42794.7,41275.3,0.954775,34.3282
191,43020,41492.5,0.9598,34.3339
192,43245.2,41709.8,0.964825,34.3395
193,43470.4,41927,0.96985,34.3451
194,43695.7,42144.2,0.974875,34.3506
195,43920.9,42361.5,0.9799,34.356
196,44146.1,42578.7,0.984925,34.3613
197,44371.4,42795.9,0.98995,34.3666
198,44596.6,43013.2,0.994975,34.3719
199,44821.8,43230.4,1.0,34.377