File: 002_Mazur_ACSApplMaterInterfaces_2024/isotherms/extrapolated/isotherm_TIP4P_MOF-LA2_343_N9_extrapolated.csv
,pressure_Pa,fugacity_Pa,p/p0,uptake
0,1.0,0.964495,2.23106e-05,0.00220832
1,226.23,218.198,0.00504732,0.477561
2,451.461,435.431,0.0100723,0.912763
3,676.691,652.665,0.0150974,1.3127
4,901.921,869.898,0.0201224,1.68148
5,1127.15,1087.13,0.0251474,2.02262
6,1352.38,1304.36,0.0301724,2.3391
7,1577.61,1521.6,0.0351974,2.63352
8,1802.84,1738.83,0.0402224,2.90809
9,2028.07,1956.06,0.0452474,3.16477
10,2253.3,2173.3,0.0502724,3.40524
11,2478.53,2390.53,0.0552975,3.63099
12,2703.76,2607.77,0.0603225,3.84334
13,2928.99,2825,0.0653475,4.04344
14,3154.22,3042.23,0.0703725,4.23233
15,3379.45,3259.47,0.0753975,4.41091
16,3604.68,3476.7,0.0804225,4.58001
17,3829.91,3693.93,0.0854475,4.74038
18,4055.14,3911.17,0.0904726,4.89265
19,4280.37,4128.4,0.0954976,5.03744
20,4505.61,4345.63,0.100523,5.17529
21,4730.84,4562.87,0.105548,5.30667
22,4956.07,4780.1,0.110573,5.43204
23,5181.3,4997.33,0.115598,5.55179
24,5406.53,5214.57,0.120623,5.66631
25,5631.76,5431.8,0.125648,5.77591
26,5856.99,5649.03,0.130673,5.88092
27,6082.22,5866.27,0.135698,5.98161
28,6307.45,6083.5,0.140723,6.07825
29,6532.68,6300.73,0.145748,6.17108
30,6757.91,6517.97,0.150773,6.26031
31,6983.14,6735.2,0.155798,6.34616
32,7208.37,6952.43,0.160823,6.42881
33,7433.6,7169.67,0.165848,6.50843
34,7658.83,7386.9,0.170873,6.58519
35,7884.06,7604.13,0.175898,6.65925
36,8109.29,7821.37,0.180923,6.73074
37,8334.52,8038.6,0.185948,6.79979
38,8559.75,8255.83,0.190973,6.86653
39,8784.98,8473.07,0.195998,6.93106
40,9010.21,8690.3,0.201023,6.99351
41,9235.44,8907.53,0.206048,7.05396
42,9460.67,9124.77,0.211073,7.11251
43,9685.9,9342,0.216098,7.16926
44,9911.13,9559.23,0.221123,7.22427
45,10136.4,9776.47,0.226148,7.27764
46,10361.6,9993.7,0.231173,7.32943
47,10586.8,10210.9,0.236198,7.37971
48,10812.1,10428.2,0.241223,7.42855
49,11037.3,10645.4,0.246248,7.476
50,11262.5,10862.6,0.251273,7.52214
51,11487.7,11079.9,0.256298,7.56701
52,11713,11297.1,0.261323,7.61067
53,11938.2,11514.3,0.266348,7.65317
54,12163.4,11731.6,0.271373,7.69456
55,12388.7,11948.8,0.276398,7.73488
56,12613.9,12166,0.281423,7.77418
57,12839.1,12383.3,0.286448,7.81251
58,13064.4,12600.5,0.291473,7.84992
59,13289.6,12817.7,0.296498,7.88646
60,13514.8,13035,0.301523,7.92216
61,13740,13252.2,0.306548,7.95709
62,13965.3,13469.4,0.311573,7.9913
63,14190.5,13686.7,0.316598,8.02485
64,14415.7,13903.9,0.321623,8.05782
65,14641,14121.1,0.326648,8.09028
66,14866.2,14338.4,0.331673,8.12232
67,15091.4,14555.6,0.336698,8.15408
68,15316.7,14772.8,0.341723,8.18568
69,15541.9,14990.1,0.346748,8.21733
70,15767.1,15207.3,0.351773,8.24928
71,15992.3,15424.5,0.356798,8.28187
72,16217.6,15641.8,0.361823,46.5973
73,16442.8,15859,0.366848,47.8258
74,16668,16076.2,0.371873,48.9797
75,16893.3,16293.5,0.376898,50.0992
76,17118.5,16510.7,0.381923,51.1408
77,17343.7,16727.9,0.386948,52.0435
78,17569,16945.2,0.391973,52.7771
79,17794.2,17162.4,0.396998,53.3493
80,18019.4,17379.6,0.402023,53.7877
81,18244.7,17596.9,0.407048,54.1239
82,18469.9,17814.1,0.412073,54.3846
83,18695.1,18031.3,0.417098,54.5903
84,18920.3,18248.6,0.422123,54.7559
85,19145.6,18465.8,0.427148,54.892
86,19370.8,18683,0.432173,55.0064
87,19596,18900.3,0.437198,55.1046
88,19821.3,19117.5,0.442223,55.1905
89,20046.5,19334.7,0.447249,55.2673
90,20271.7,19552,0.452274,55.3372
91,20497,19769.2,0.457299,55.402
92,20722.2,19986.4,0.462324,55.4632
93,20947.4,20203.7,0.467349,55.5218
94,21172.6,20420.9,0.472374,55.5788
95,21397.9,20638.1,0.477399,55.635
96,21623.1,20855.4,0.482424,55.6911
97,21848.3,21072.6,0.487449,55.7477
98,22073.6,21289.8,0.492474,55.8055
99,22298.8,21507.1,0.497499,55.8649
100,22524,21724.3,0.502524,55.9264
101,22749.3,21941.5,0.507549,55.9905
102,22974.5,22158.8,0.512574,56.0575
103,23199.7,22376,0.517599,56.128
104,23424.9,22593.2,0.522624,56.2022
105,23650.2,22810.5,0.527649,56.2804
106,23875.4,23027.7,0.532674,56.363
107,24100.6,23244.9,0.537699,56.45
108,24325.9,23462.2,0.542724,56.5417
109,24551.1,23679.4,0.547749,56.6381
110,24776.3,23896.6,0.552774,56.7391
111,25001.6,24113.9,0.557799,56.8445
112,25226.8,24331.1,0.562824,56.9542
113,25452,24548.3,0.567849,57.0678
114,25677.2,24765.6,0.572874,57.1848
115,25902.5,24982.8,0.577899,57.3048
116,26127.7,25200,0.582924,57.4272
117,26352.9,25417.3,0.587949,57.5515
118,26578.2,25634.5,0.592974,57.677
119,26803.4,25851.7,0.597999,57.8032
120,27028.6,26069,0.603024,57.9295
121,27253.9,26286.2,0.608049,58.0554
122,27479.1,26503.4,0.613074,58.1805
123,27704.3,26720.7,0.618099,58.3044
124,27929.6,26937.9,0.623124,58.4268
125,28154.8,27155.1,0.628149,58.5474
126,28380,27372.4,0.633174,58.666
127,28605.2,27589.6,0.638199,58.7825
128,28830.5,27806.8,0.643224,58.8968
129,29055.7,28024.1,0.648249,59.0087
130,29280.9,28241.3,0.653274,59.1184
131,29506.2,28458.5,0.658299,59.2257
132,29731.4,28675.8,0.663324,59.3308
133,29956.6,28893,0.668349,59.4335
134,30181.9,29110.2,0.673374,59.534
135,30407.1,29327.5,0.678399,59.6324
136,30632.3,29544.7,0.683424,59.7286
137,30857.5,29761.9,0.688449,59.8227
138,31082.8,29979.2,0.693474,59.9149
139,31308,30196.4,0.698499,60.005
140,31533.2,30413.6,0.703524,60.0933
141,31758.5,30630.9,0.708549,60.1797
142,31983.7,30848.1,0.713574,60.2644
143,32208.9,31065.3,0.718599,60.3473
144,32434.2,31282.6,0.723624,60.4285
145,32659.4,31499.8,0.728649,60.5081
146,32884.6,31717,0.733674,60.5861
147,33109.8,31934.3,0.738699,60.6626
148,33335.1,32151.5,0.743724,60.7376
149,33560.3,32368.7,0.748749,60.8111
150,33785.5,32586,0.753774,60.8832
151,34010.8,32803.2,0.758799,60.954
152,34236,33020.4,0.763824,61.0234
153,34461.2,33237.7,0.768849,61.0915
154,34686.5,33454.9,0.773874,61.1584
155,34911.7,33672.1,0.778899,61.224
156,35136.9,33889.4,0.783924,61.2885
157,35362.1,34106.6,0.788949,61.3518
158,35587.4,34323.8,0.793974,61.414
159,35812.6,34541.1,0.798999,61.475
160,36037.8,34758.3,0.804024,61.5351
161,36263.1,34975.5,0.809049,61.594
162,36488.3,35192.8,0.814074,61.652
163,36713.5,35410,0.8191,61.7089
164,36938.8,35627.2,0.824125,61.765
165,37164,35844.5,0.82915,61.82
166,37389.2,36061.7,0.834175,61.8742
167,37614.5,36278.9,0.8392,61.9274
168,37839.7,36496.2,0.844225,61.9798
169,38064.9,36713.4,0.84925,62.0314
170,38290.1,36930.6,0.854275,62.0821
171,38515.4,37147.9,0.8593,62.132
172,38740.6,37365.1,0.864325,62.1811
173,38965.8,37582.3,0.86935,62.2294
174,39191.1,37799.6,0.874375,62.277
175,39416.3,38016.8,0.8794,62.3238
176,39641.5,38234,0.884425,62.3699
177,39866.8,38451.3,0.88945,62.4153
178,40092,38668.5,0.894475,62.46
179,40317.2,38885.7,0.8995,62.5041
180,40542.4,39103,0.904525,62.5475
181,40767.7,39320.2,0.90955,62.5902
182,40992.9,39537.4,0.914575,62.6323
183,41218.1,39754.7,0.9196,62.6738
184,41443.4,39971.9,0.924625,62.7146
185,41668.6,40189.1,0.92965,62.7549
186,41893.8,40406.4,0.934675,62.7946
187,42119.1,40623.6,0.9397,62.8337
188,42344.3,40840.8,0.944725,62.8723
189,42569.5,41058.1,0.94975,62.9103
190,42794.7,41275.3,0.954775,62.9478
191,43020,41492.5,0.9598,62.9847
192,43245.2,41709.8,0.964825,63.0212
193,43470.4,41927,0.96985,63.0571
194,43695.7,42144.2,0.974875,63.0925
195,43920.9,42361.5,0.9799,63.1274
196,44146.1,42578.7,0.984925,63.1619
197,44371.4,42795.9,0.98995,63.1959
198,44596.6,43013.2,0.994975,63.2294
199,44821.8,43230.4,1.0,63.2625