File: 002_Mazur_ACSApplMaterInterfaces_2024/isotherms/extrapolated/isotherm_TIP4P_NU-1000_343_N12_extrapolated.csv
,pressure_Pa,fugacity_Pa,p/p0,uptake,metastable_gas,metastable_liq
0,1.0,0.964495,2.23106e-05,0.0190949,,
1,226.23,218.198,0.00504732,4.01863,,
2,451.461,435.431,0.0100723,7.49678,,
3,676.691,652.665,0.0150974,10.5493,,
4,901.921,869.898,0.0201224,13.2497,,
5,1127.15,1087.13,0.0251474,15.6557,,
6,1352.38,1304.36,0.0301724,17.8129,,
7,1577.61,1521.6,0.0351974,19.758,,
8,1802.84,1738.83,0.0402224,21.5208,,
9,2028.07,1956.06,0.0452474,23.1259,,
10,2253.3,2173.3,0.0502724,24.5934,,
11,2478.53,2390.53,0.0552975,25.9403,,
12,2703.76,2607.77,0.0603225,27.1809,,
13,2928.99,2825,0.0653475,28.3273,,
14,3154.22,3042.23,0.0703725,29.3899,,
15,3379.45,3259.47,0.0753975,30.3775,,
16,3604.68,3476.7,0.0804225,31.2978,,
17,3829.91,3693.93,0.0854475,32.1574,,
18,4055.14,3911.17,0.0904726,32.9622,,
19,4280.37,4128.4,0.0954976,33.7171,,
20,4505.61,4345.63,0.100523,34.4269,,
21,4730.84,4562.87,0.105548,35.0952,,
22,4956.07,4780.1,0.110573,35.7258,,
23,5181.3,4997.33,0.115598,36.3216,,
24,5406.53,5214.57,0.120623,36.8856,,
25,5631.76,5431.8,0.125648,37.4201,,
26,5856.99,5649.03,0.130673,37.9274,,
27,6082.22,5866.27,0.135698,38.4096,,
28,6307.45,6083.5,0.140723,38.8685,,
29,6532.68,6300.73,0.145748,39.3057,,
30,6757.91,6517.97,0.150773,39.7227,,
31,6983.14,6735.2,0.155798,40.1209,,
32,7208.37,6952.43,0.160823,40.5016,,
33,7433.6,7169.67,0.165848,40.8658,,
34,7658.83,7386.9,0.170873,41.2146,,
35,7884.06,7604.13,0.175898,41.549,,
36,8109.29,7821.37,0.180923,41.8699,,
37,8334.52,8038.6,0.185948,42.178,,
38,8559.75,8255.83,0.190973,42.4741,,
39,8784.98,8473.07,0.195998,42.7588,,
40,9010.21,8690.3,0.201023,43.033,,
41,9235.44,8907.53,0.206048,43.297,,
42,9460.67,9124.77,0.211073,43.5514,,
43,9685.9,9342,0.216098,43.7969,,
44,9911.13,9559.23,0.221123,44.0338,,
45,10136.4,9776.47,0.226148,44.2625,,
46,10361.6,9993.7,0.231173,44.4836,,
47,10586.8,10210.9,0.236198,44.6973,,
48,10812.1,10428.2,0.241223,44.9041,,
49,11037.3,10645.4,0.246248,45.1042,,
50,11262.5,10862.6,0.251273,45.298,,
51,11487.7,11079.9,0.256298,45.4858,,
52,11713,11297.1,0.261323,45.6678,,
53,11938.2,11514.3,0.266348,45.8443,,
54,12163.4,11731.6,0.271373,46.0157,,
55,12388.7,11948.8,0.276398,46.1819,,
56,12613.9,12166,0.281423,46.3434,,
57,12839.1,12383.3,0.286448,46.5003,,
58,13064.4,12600.5,0.291473,46.6528,,
59,13289.6,12817.7,0.296498,46.8011,,
60,13514.8,13035,0.301523,46.9454,,
61,13740,13252.2,0.306548,47.0857,,
62,13965.3,13469.4,0.311573,47.2224,,
63,14190.5,13686.7,0.316598,47.3554,,
64,14415.7,13903.9,0.321623,47.485,,
65,14641,14121.1,0.326648,47.6114,,
66,14866.2,14338.4,0.331673,47.7345,,
67,15091.4,14555.6,0.336698,47.8545,,
68,15316.7,14772.8,0.341723,47.9717,,
69,15541.9,14990.1,0.346748,48.0859,,
70,15767.1,15207.3,0.351773,48.1974,,
71,15992.3,15424.5,0.356798,48.3063,,
72,16217.6,15641.8,0.361823,48.4127,,
73,16442.8,15859,0.366848,48.5165,,
74,16668,16076.2,0.371873,48.618,,
75,16893.3,16293.5,0.376898,48.7172,,
76,17118.5,16510.7,0.381923,48.8142,,
77,17343.7,16727.9,0.386948,48.9091,,
78,17569,16945.2,0.391973,49.0018,,
79,17794.2,17162.4,0.396998,49.0926,,
80,18019.4,17379.6,0.402023,49.1814,,
81,18244.7,17596.9,0.407048,49.2684,,
82,18469.9,17814.1,0.412073,49.3535,,
83,18695.1,18031.3,0.417098,49.4369,,
84,18920.3,18248.6,0.422123,49.5185,,
85,19145.6,18465.8,0.427148,49.5986,,
86,19370.8,18683,0.432173,49.677,,
87,19596,18900.3,0.437198,49.7538,,
88,19821.3,19117.5,0.442223,49.8292,,
89,20046.5,19334.7,0.447249,49.9031,,
90,20271.7,19552,0.452274,49.9756,,
91,20497,19769.2,0.457299,50.0467,,
92,20722.2,19986.4,0.462324,50.1164,,
93,20947.4,20203.7,0.467349,50.1849,,
94,21172.6,20420.9,0.472374,50.2522,,
95,21397.9,20638.1,0.477399,50.3182,,
96,21623.1,20855.4,0.482424,50.383,,
97,21848.3,21072.6,0.487449,50.4467,,
98,22073.6,21289.8,0.492474,50.5092,,
99,22298.8,21507.1,0.497499,50.5707,,
100,22524,21724.3,0.502524,50.6311,,
101,22749.3,21941.5,0.507549,50.6905,,
102,22974.5,22158.8,0.512574,50.7489,,
103,23199.7,22376,0.517599,50.8063,,
104,23424.9,22593.2,0.522624,50.8628,,
105,23650.2,22810.5,0.527649,50.9184,,
106,23875.4,23027.7,0.532674,50.9731,,
107,24100.6,23244.9,0.537699,51.0269,,
108,24325.9,23462.2,0.542724,51.0799,,
109,24551.1,23679.4,0.547749,51.1321,,
110,24776.3,23896.6,0.552774,51.1835,,
111,25001.6,24113.9,0.557799,51.2341,,
112,25226.8,24331.1,0.562824,51.284,,
113,25452,24548.3,0.567849,51.3331,,
114,25677.2,24765.6,0.572874,51.3815,,
115,25902.5,24982.8,0.577899,51.4293,,
116,26127.7,25200,0.582924,51.4764,,
117,26352.9,25417.3,0.587949,51.5228,,
118,26578.2,25634.5,0.592974,51.5687,,
119,26803.4,25851.7,0.597999,51.6139,,
120,27028.6,26069,0.603024,51.6585,,
121,27253.9,26286.2,0.608049,51.7025,,
122,27479.1,26503.4,0.613074,51.746,,
123,27704.3,26720.7,0.618099,51.789,,
124,27929.6,26937.9,0.623124,51.8314,,
125,28154.8,27155.1,0.628149,51.8734,,
126,28380,27372.4,0.633174,51.9148,,
127,28605.2,27589.6,0.638199,51.9558,,
128,28830.5,27806.8,0.643224,51.9963,,
129,29055.7,28024.1,0.648249,52.0363,,
130,29280.9,28241.3,0.653274,52.076,,463.071
131,29506.2,28458.5,0.658299,52.1152,,464.785
132,29731.4,28675.8,0.663324,52.154,,452.98
133,29956.6,28893,0.668349,52.1925,,464.67
134,30181.9,29110.2,0.673374,52.2306,,470.435
135,30407.1,29327.5,0.678399,52.2683,,473.668
136,30632.3,29544.7,0.683424,52.3057,,475.88
137,30857.5,29761.9,0.688449,52.3427,,477.615
138,31082.8,29979.2,0.693474,52.3795,,479.066
139,31308,30196.4,0.698499,52.4159,,480.314
140,31533.2,30413.6,0.703524,52.4521,,481.399
141,31758.5,30630.9,0.708549,52.4879,,482.347
142,31983.7,30848.1,0.713574,52.5236,,483.179
143,32208.9,31065.3,0.718599,52.5589,,483.913
144,32434.2,31282.6,0.723624,52.5941,,484.563
145,32659.4,31499.8,0.728649,52.629,,485.14
146,32884.6,31717,0.733674,52.6637,,485.656
147,33109.8,31934.3,0.738699,52.6982,,486.118
148,33335.1,32151.5,0.743724,52.7325,,486.536
149,33560.3,32368.7,0.748749,52.7667,,486.915
150,33785.5,32586,0.753774,52.8007,,487.26
151,34010.8,32803.2,0.758799,52.8345,,487.576
152,34236,33020.4,0.763824,52.8683,,487.867
153,34461.2,33237.7,0.768849,52.9019,,488.137
154,34686.5,33454.9,0.773874,52.9354,,488.387
155,34911.7,33672.1,0.778899,52.9688,,488.622
156,35136.9,33889.4,0.783924,53.0021,,488.842
157,35362.1,34106.6,0.788949,53.0354,,489.051
158,35587.4,34323.8,0.793974,53.0687,,489.248
159,35812.6,34541.1,0.798999,53.1019,,489.436
160,36037.8,34758.3,0.804024,53.135,,489.617
161,36263.1,34975.5,0.809049,53.1682,,489.79
162,36488.3,35192.8,0.814074,53.2014,,489.958
163,36713.5,35410,0.8191,490.12,53.2346,
164,36938.8,35627.2,0.824125,490.278,53.2679,
165,37164,35844.5,0.82915,490.433,53.3012,
166,37389.2,36061.7,0.834175,490.585,53.3346,
167,37614.5,36278.9,0.8392,490.734,53.368,
168,37839.7,36496.2,0.844225,490.882,53.4016,
169,38064.9,36713.4,0.84925,491.029,53.4353,
170,38290.1,36930.6,0.854275,491.174,53.4692,
171,38515.4,37147.9,0.8593,491.32,53.5032,
172,38740.6,37365.1,0.864325,491.465,53.5374,
173,38965.8,37582.3,0.86935,491.611,53.5718,
174,39191.1,37799.6,0.874375,491.758,53.6064,
175,39416.3,38016.8,0.8794,491.905,53.6413,
176,39641.5,38234,0.884425,492.055,53.6764,
177,39866.8,38451.3,0.88945,492.206,53.7119,
178,40092,38668.5,0.894475,492.359,53.7476,
179,40317.2,38885.7,0.8995,492.515,53.7837,
180,40542.4,39103,0.904525,492.673,53.8202,
181,40767.7,39320.2,0.90955,492.835,53.857,
182,40992.9,39537.4,0.914575,492.999,53.8943,
183,41218.1,39754.7,0.9196,493.167,53.932,
184,41443.4,39971.9,0.924625,493.339,53.9702,
185,41668.6,40189.1,0.92965,493.515,54.009,
186,41893.8,40406.4,0.934675,493.695,54.0483,
187,42119.1,40623.6,0.9397,493.879,54.0882,
188,42344.3,40840.8,0.944725,494.068,54.1287,
189,42569.5,41058.1,0.94975,494.262,54.1699,
190,42794.7,41275.3,0.954775,494.461,54.2119,
191,43020,41492.5,0.9598,494.665,54.2546,
192,43245.2,41709.8,0.964825,494.874,54.2981,
193,43470.4,41927,0.96985,495.088,54.3426,
194,43695.7,42144.2,0.974875,495.308,54.3879,
195,43920.9,42361.5,0.9799,495.534,54.4343,
196,44146.1,42578.7,0.984925,495.765,54.4818,
197,44371.4,42795.9,0.98995,496.002,54.5304,
198,44596.6,43013.2,0.994975,496.245,54.5803,
199,44821.8,43230.4,1.0,496.493,54.6314,